 Au Density=19.32, Angle=90.deg
 Photon Energy (eV), Atten Length (microns)
   30.0000  5.983534E-03
   30.3089  5.920503E-03
   30.6210  5.908004E-03
   30.9363  5.895489E-03
   31.2548  5.885649E-03
   31.5766  5.940741E-03
   31.9018  6.035251E-03
   32.2302  6.175572E-03
   32.5621  6.278419E-03
   32.8974  6.370933E-03
   33.2361  6.449500E-03
   33.5783  6.529067E-03
   33.9241  6.609620E-03
   34.2734  6.691145E-03
   34.6263  6.773817E-03
   34.9828  6.857604E-03
   35.3430  6.942637E-03
   35.7069  7.028733E-03
   36.0746  7.115901E-03
   36.4460  7.204124E-03
   36.8213  7.286157E-03
   37.2004  7.356959E-03
   37.5835  7.418220E-03
   37.9705  7.477591E-03
   38.3614  7.537454E-03
   38.7564  7.597786E-03
   39.1555  7.658595E-03
   39.5586  7.719908E-03
   39.9660  7.778145E-03
   40.3775  7.833829E-03
   40.7932  7.884410E-03
   41.2133  7.935174E-03
   41.6376  7.986232E-03
   42.0663  8.037633E-03
   42.4995  8.089378E-03
   42.9371  8.141470E-03
   43.3792  8.193857E-03
   43.8258  8.248389E-03
   44.2771  8.313863E-03
   44.7330  8.399232E-03
   45.1936  8.499589E-03
   45.6589  8.601177E-03
   46.1291  8.703980E-03
   46.6041  8.808009E-03
   47.0839  8.916181E-03
   47.5687  9.027654E-03
   48.0585  9.143973E-03
   48.5534  9.261830E-03
   49.0533  9.381210E-03
   49.5584  9.502089E-03
   50.0687  9.595908E-03
   50.5842  9.670559E-03
   51.1050  9.703890E-03
   51.6312  9.737353E-03
   52.1629  9.770942E-03
   52.7000  9.804594E-03
   53.2426  9.838369E-03
   53.7908  9.872293E-03
   54.3447  9.884956E-03
   54.9043  9.884313E-03
   55.4696  9.857090E-03
   56.0407  9.829924E-03
   56.6178  9.802825E-03
   57.2007  9.775815E-03
   57.7897  9.748878E-03
   58.3847  9.722012E-03
   58.9859  9.720224E-03
   59.5933  9.736973E-03
   60.2069  9.781144E-03
   60.8268  9.825480E-03
   61.4531  9.870022E-03
   62.0859  9.914792E-03
   62.7251  1.001264E-02
   63.3710  1.014548E-02
   64.0235  1.035168E-02
   64.6827  1.056458E-02
   65.3487  1.078389E-02
   66.0216  1.104767E-02
   66.7014  1.131827E-02
   67.3882  1.159549E-02
   68.0821  1.187951E-02
   68.7831  1.217047E-02
   69.4913  1.246854E-02
   70.2068  1.271029E-02
   70.9297  1.292793E-02
   71.6601  1.312590E-02
   72.3979  1.332685E-02
   73.1434  1.353043E-02
   73.8965  1.372185E-02
   74.6574  1.390234E-02
   75.4261  1.406909E-02
   76.2027  1.423784E-02
   76.9874  1.442176E-02
   77.7801  1.463534E-02
   78.5809  1.490179E-02
   79.3901  1.518895E-02
   80.2075  1.548174E-02
   81.0334  1.578012E-02
   81.8677  1.607150E-02
   82.7107  1.617752E-02
   83.5623  1.609393E-02
   84.4228  1.582141E-02
   85.2920  1.622732E-02
   86.1702  1.670117E-02
   87.0575  1.719760E-02
   87.9539  1.780375E-02
   88.8595  1.845624E-02
   89.7745  1.913271E-02
   90.6988  1.983392E-02
   91.6327  2.057125E-02
   92.5762  2.143444E-02
   93.5295  2.233594E-02
   94.4925  2.327723E-02
   95.4655  2.414490E-02
   96.4484  2.500090E-02
   97.4415  2.582538E-02
   98.4448  2.667705E-02
   99.4585  2.755680E-02
   100.483  2.846562E-02
   101.517  2.946628E-02
   102.562  3.053452E-02
   103.619  3.167560E-02
   104.685  3.285955E-02
   105.763  3.408794E-02
   106.852  3.536186E-02
   107.953  3.660249E-02
   109.064  3.777872E-02
   110.187  3.891692E-02
   111.322  4.007773E-02
   112.468  4.127305E-02
   113.626  4.250405E-02
   114.796  4.377174E-02
   115.978  4.507699E-02
   117.172  4.638193E-02
   118.379  4.769706E-02
   119.597  4.901937E-02
   120.829  5.037830E-02
   122.073  5.177486E-02
   123.330  5.321030E-02
   124.600  5.468542E-02
   125.883  5.620121E-02
   127.179  5.787806E-02
   128.488  5.973111E-02
   129.811  6.199948E-02
   131.148  6.435380E-02
   132.498  6.677033E-02
   133.863  6.893097E-02
   135.241  7.068285E-02
   136.634  7.200846E-02
   138.040  7.335904E-02
   139.462  7.473492E-02
   140.898  7.613658E-02
   142.349  7.756431E-02
   143.814  7.887526E-02
   145.295  7.975656E-02
   146.791  8.026724E-02
   148.303  8.059942E-02
   149.830  8.093305E-02
   151.372  8.126787E-02
   152.931  8.160391E-02
   154.506  8.194185E-02
   156.096  8.220855E-02
   157.704  8.237223E-02
   159.328  8.167174E-02
   160.968  8.082215E-02
   162.626  7.998171E-02
   164.300  7.915054E-02
   165.992  7.832807E-02
   167.701  7.751323E-02
   169.428  7.647570E-02
   171.172  7.527827E-02
   172.935  7.346522E-02
   174.715  7.169531E-02
   176.514  6.996728E-02
   178.332  6.828190E-02
   180.168  6.663720E-02
   182.023  6.503201E-02
   183.897  6.345394E-02
   185.791  6.190866E-02
   187.704  6.039406E-02
   189.637  5.891593E-02
   191.589  5.747367E-02
   193.562  5.606771E-02
   195.555  5.469581E-02
   197.568  5.335714E-02
   199.603  5.207552E-02
   201.658  5.085730E-02
   203.734  4.972273E-02
   205.832  4.861354E-02
   207.952  4.752899E-02
   210.093  4.646824E-02
   212.256  4.544411E-02
   214.441  4.447890E-02
   216.650  4.384051E-02
   218.880  4.321136E-02
   221.134  4.259128E-02
   223.411  4.198045E-02
   225.711  4.137821E-02
   228.035  4.078432E-02
   230.383  4.019913E-02
   232.756  3.964999E-02
   235.152  3.918784E-02
   237.573  3.876494E-02
   240.020  3.836177E-02
   242.491  3.796314E-02
   244.988  3.756849E-02
   247.510  3.717781E-02
   250.059  3.679116E-02
   252.634  3.645382E-02
   255.235  3.618061E-02
   257.863  3.591858E-02
   260.518  3.565995E-02
   263.201  3.540322E-02
   265.911  3.514827E-02
   268.649  3.489515E-02
   271.415  3.464388E-02
   274.209  3.445017E-02
   277.033  3.429782E-02
   279.885  3.422439E-02
   282.767  3.415110E-02
   285.679  3.407794E-02
   288.620  3.400503E-02
   291.592  3.393224E-02
   294.594  3.385946E-02
   297.628  3.378697E-02
   300.692  3.371465E-02
   303.788  3.364240E-02
   306.916  3.357038E-02
   310.077  3.350205E-02
   313.269  3.348622E-02
   316.495  3.347825E-02
   319.754  3.347821E-02
   323.046  3.347822E-02
   326.372  3.347824E-02
   329.733  3.347827E-02
   333.128  3.347825E-02
   336.558  3.347819E-02
   340.024  3.347816E-02
   343.525  3.347820E-02
   347.062  3.347858E-02
   350.635  3.348155E-02
   354.246  3.355402E-02
   357.893  3.368792E-02
   361.578  3.382231E-02
   365.301  3.395724E-02
   369.063  3.409276E-02
   372.863  3.422878E-02
   376.702  3.436533E-02
   380.581  3.450236E-02
   384.499  3.463998E-02
   388.459  3.477818E-02
   392.458  3.491696E-02
   396.499  3.505631E-02
   400.582  3.519635E-02
   404.707  3.540743E-02
   408.874  3.563509E-02
   413.084  3.588416E-02
   417.337  3.613510E-02
   421.634  3.638779E-02
   425.976  3.664219E-02
   430.362  3.689840E-02
   434.793  3.715641E-02
   439.270  3.741628E-02
   443.793  3.767788E-02
   448.362  3.794230E-02
   452.979  3.823473E-02
   457.643  3.854187E-02
   462.355  3.886556E-02
   467.116  3.919192E-02
   471.926  3.952099E-02
   476.785  3.985282E-02
   481.694  4.018752E-02
   486.654  4.052504E-02
   491.665  4.086529E-02
   496.727  4.120842E-02
   501.842  4.155445E-02
   507.009  4.190345E-02
   512.230  4.226002E-02
   517.504  4.262413E-02
   522.832  4.299428E-02
   528.216  4.336786E-02
   533.655  4.374473E-02
   539.150  4.412486E-02
   544.701  4.450829E-02
   550.310  4.489504E-02
   555.976  4.528514E-02
   561.701  4.567908E-02
   567.484  4.608011E-02
   573.327  4.649432E-02
   579.231  4.692038E-02
   585.195  4.735026E-02
   591.220  4.778412E-02
   597.308  4.822200E-02
   603.458  4.866388E-02
   609.672  4.910982E-02
   615.949  4.955982E-02
   622.291  5.001396E-02
   628.699  5.047224E-02
   635.172  5.093472E-02
   641.712  5.140144E-02
   648.320  5.187384E-02
   654.995  5.245067E-02
   661.740  5.307401E-02
   668.553  5.375485E-02
   675.437  5.444427E-02
   682.392  5.514259E-02
   689.418  5.584997E-02
   696.517  5.656632E-02
   703.689  5.729183E-02
   710.934  5.802667E-02
   718.254  5.877092E-02
   725.650  5.952391E-02
   733.122  6.027134E-02
   740.670  6.102787E-02
   748.297  6.179358E-02
   756.002  6.256884E-02
   763.786  6.335385E-02
   771.650  6.414876E-02
   779.596  6.495360E-02
   787.623  6.576859E-02
   795.733  6.659411E-02
   803.926  6.750230E-02
   812.204  6.846191E-02
   820.567  6.943525E-02
   829.016  7.042240E-02
   837.552  7.142354E-02
   846.176  7.243882E-02
   854.888  7.346857E-02
   863.691  7.451300E-02
   872.584  7.557984E-02
   881.569  7.672637E-02
   890.646  7.807662E-02
   899.816  7.945063E-02
   909.081  8.084887E-02
   918.442  8.227166E-02
   927.899  8.371948E-02
   937.453  8.519286E-02
   947.106  8.669213E-02
   956.858  8.825671E-02
   966.710  8.990346E-02
   976.664  9.162388E-02
   986.720  9.338453E-02
   996.880  9.517898E-02
   1007.14  9.700825E-02
   1017.51  9.887273E-02
   1027.99  0.100772
   1038.58  0.102896
   1049.27  0.105201
   1060.07  0.107732
   1070.99  0.110323
   1082.02  0.112978
   1093.16  0.115696
   1104.41  0.118479
   1115.79  0.121330
   1127.27  0.124249
   1138.88  0.127238
   1150.61  0.130300
   1162.46  0.133437
   1174.42  0.136650
   1186.52  0.139940
   1198.73  0.143310
   1211.08  0.146760
   1223.55  0.150214
   1236.15  0.153632
   1248.87  0.156931
   1261.73  0.160300
   1274.72  0.163741
   1287.85  0.167257
   1301.11  0.170848
   1314.51  0.174552
   1328.04  0.178673
   1341.72  0.182930
   1355.53  0.187323
   1369.49  0.191820
   1383.59  0.196426
   1397.84  0.201143
   1412.23  0.205972
   1426.77  0.210791
   1441.46  0.215371
   1456.30  0.220003
   1471.30  0.224718
   1486.45  0.229553
   1501.75  0.235621
   1517.22  0.242732
   1532.84  0.250105
   1548.62  0.257523
   1564.57  0.264922
   1580.68  0.271469
   1596.95  0.277982
   1613.40  0.284576
   1630.01  0.291395
   1646.79  0.298583
   1663.75  0.306847
   1680.88  0.314959
   1698.19  0.322994
   1715.67  0.330328
   1733.34  0.338271
   1751.18  0.346913
   1769.22  0.354428
   1787.43  0.361650
   1805.84  0.368401
   1824.43  0.377197
   1843.22  0.386580
   1862.20  0.395401
   1881.37  0.403518
   1900.74  0.411442
   1920.31  0.421554
   1940.09  0.432584
   1960.06  0.444570
   1980.24  0.455373
   2000.63  0.466146
   2021.23  0.476840
   2042.05  0.488601
   2063.07  0.500992
   2084.31  0.514150
   2105.78  0.527980
   2127.46  0.542318
   2149.36  0.556850
   2171.49  0.572312
   2193.85  0.588670
   2216.44  0.522787
   2239.26  0.417588
   2262.32  0.287999
   2285.62  0.266206
   2309.15  0.249356
   2332.93  0.210323
   2356.95  0.196685
   2381.22  0.192512
   2405.73  0.192803
   2430.51  0.194603
   2455.53  0.197523
   2480.81  0.199921
   2506.36  0.202649
   2532.17  0.205789
   2558.24  0.209906
   2584.58  0.214132
   2611.19  0.218219
   2638.08  0.220557
   2665.24  0.222769
   2692.68  0.227135
   2720.41  0.223431
   2748.42  0.215242
   2776.72  0.213243
   2805.31  0.214229
   2834.20  0.218452
   2863.38  0.222254
   2892.86  0.226226
   2922.65  0.230556
   2952.74  0.235716
   2983.15  0.241144
   3013.86  0.246487
   3044.89  0.251825
   3076.25  0.257242
   3107.92  0.263119
   3139.92  0.266560
   3172.25  0.267660
   3204.92  0.269343
   3237.92  0.272812
   3271.26  0.279152
   3304.94  0.285448
   3338.97  0.291874
   3373.35  0.298535
   3408.08  0.303581
   3443.17  0.307878
   3478.63  0.312086
   3514.45  0.318889
   3550.63  0.327932
   3587.19  0.336272
   3624.13  0.344695
   3661.44  0.353161
   3699.14  0.361746
   3737.23  0.370485
   3775.71  0.379329
   3814.59  0.388742
   3853.87  0.398532
   3893.55  0.408596
   3933.64  0.418875
   3974.14  0.429382
   4015.06  0.440138
   4056.40  0.451366
   4098.17  0.463125
   4140.37  0.474802
   4183.00  0.487649
   4226.07  0.502804
   4269.59  0.514047
   4313.55  0.524758
   4357.96  0.538328
   4402.83  0.551777
   4448.17  0.565314
   4493.97  0.579825
   4540.24  0.594617
   4586.99  0.609692
   4634.22  0.625336
   4681.94  0.641377
   4730.15  0.657800
   4778.85  0.674602
   4828.06  0.691726
   4877.77  0.708951
   4928.00  0.726727
   4978.74  0.744906
   5030.00  0.762537
   5036.95  0.764943
   5043.91  0.767359
   5050.87  0.769781
   5057.85  0.772249
   5064.83  0.774761
   5071.83  0.777281
   5078.84  0.779809
   5085.85  0.782345
   5092.88  0.784888
   5099.91  0.787441
   5106.96  0.790002
   5114.01  0.792572
   5121.07  0.795149
   5128.15  0.797734
   5135.23  0.800329
   5142.32  0.803114
   5149.43  0.805928
   5156.54  0.808754
   5163.66  0.811589
   5170.79  0.814435
   5177.94  0.817289
   5185.09  0.820154
   5192.25  0.823030
   5199.42  0.825914
   5206.60  0.828809
   5213.80  0.831715
   5221.00  0.834416
   5228.21  0.836553
   5235.43  0.838696
   5242.66  0.840844
   5249.90  0.842998
   5257.16  0.845158
   5264.42  0.847322
   5271.69  0.849493
   5278.97  0.851668
   5286.26  0.853850
   5293.56  0.856037
   5300.88  0.858229
   5308.20  0.861144
   5315.53  0.864455
   5322.87  0.867779
   5330.23  0.871117
   5337.59  0.874466
   5344.96  0.877828
   5352.34  0.881204
   5359.74  0.884592
   5367.14  0.887994
   5374.55  0.891408
   5381.98  0.894836
   5389.41  0.898269
   5396.85  0.901401
   5404.31  0.904544
   5411.77  0.907699
   5419.25  0.910864
   5426.73  0.914040
   5434.23  0.917228
   5441.74  0.920426
   5449.25  0.923637
   5456.78  0.926857
   5464.32  0.930088
   5471.87  0.933333
   5479.42  0.936585
   5486.99  0.939846
   5494.57  0.943119
   5502.16  0.946402
   5509.76  0.949698
   5517.37  0.953004
   5524.99  0.956322
   5532.62  0.959653
   5540.27  0.962993
   5547.92  0.966346
   5555.58  0.969711
   5563.26  0.973087
   5570.94  0.976447
   5578.63  0.979809
   5586.34  0.983183
   5594.06  0.986569
   5601.78  0.989966
   5609.52  0.993375
   5617.27  0.996796
   5625.03  1.00023
   5632.80  1.00367
   5640.58  1.00713
   5648.37  1.01060
   5656.17  1.01407
   5663.98  1.01753
   5671.81  1.02100
   5679.64  1.02448
   5687.49  1.02798
   5695.34  1.03148
   5703.21  1.03500
   5711.09  1.03853
   5718.98  1.04207
   5726.88  1.04563
   5734.79  1.04919
   5742.71  1.05277
   5750.64  1.05626
   5758.58  1.05967
   5766.54  1.06310
   5774.50  1.06653
   5782.48  1.06998
   5790.47  1.07344
   5798.46  1.07690
   5806.47  1.08038
   5814.49  1.08387
   5822.52  1.08737
   5830.57  1.09089
   5838.62  1.09441
   5846.69  1.09858
   5854.76  1.10284
   5862.85  1.10711
   5870.95  1.11140
   5879.06  1.11570
   5887.18  1.12002
   5895.31  1.12436
   5903.45  1.12872
   5911.61  1.13309
   5919.77  1.13748
   5927.95  1.14188
   5936.14  1.14607
   5944.34  1.14969
   5952.55  1.15331
   5960.77  1.15695
   5969.00  1.16059
   5977.25  1.16425
   5985.50  1.16792
   5993.77  1.17160
   6002.05  1.17530
   6010.34  1.17900
   6018.64  1.18272
   6026.96  1.18645
   6035.28  1.19055
   6043.62  1.19486
   6051.97  1.19919
   6060.32  1.20353
   6068.70  1.20789
   6077.08  1.21226
   6085.47  1.21665
   6093.88  1.22105
   6102.29  1.22547
   6110.72  1.22991
   6119.16  1.23436
   6127.62  1.23883
   6136.08  1.24330
   6144.56  1.24779
   6153.04  1.25229
   6161.54  1.25681
   6170.05  1.26134
   6178.58  1.26589
   6187.11  1.27046
   6195.66  1.27504
   6204.21  1.27964
   6212.78  1.28426
   6221.37  1.28889
   6229.96  1.29353
   6238.56  1.29816
   6247.18  1.30281
   6255.81  1.30748
   6264.45  1.31217
   6273.10  1.31687
   6281.77  1.32159
   6290.45  1.32632
   6299.14  1.33107
   6307.84  1.33584
   6316.55  1.34063
   6325.27  1.34543
   6334.01  1.35026
   6342.76  1.35510
   6351.52  1.35996
   6360.29  1.36484
   6369.08  1.36974
   6377.88  1.37465
   6386.69  1.37958
   6395.51  1.38453
   6404.34  1.38949
   6413.19  1.39448
   6422.05  1.39948
   6430.92  1.40450
   6439.80  1.40955
   6448.70  1.41462
   6457.60  1.41970
   6466.52  1.42480
   6475.45  1.42992
   6484.40  1.43506
   6493.36  1.44022
   6502.32  1.44539
   6511.31  1.45059
   6520.30  1.45580
   6529.31  1.46103
   6538.33  1.46629
   6547.36  1.47156
   6556.40  1.47685
   6565.46  1.48217
   6574.52  1.48750
   6583.61  1.49286
   6592.70  1.49823
   6601.81  1.50362
   6610.92  1.50903
   6620.06  1.51446
   6629.20  1.51990
   6638.36  1.52537
   6647.53  1.53087
   6656.71  1.53639
   6665.90  1.54192
   6675.11  1.54748
   6684.33  1.55306
   6693.56  1.55865
   6702.81  1.56427
   6712.07  1.56991
   6721.34  1.57556
   6730.62  1.58124
   6739.92  1.58694
   6749.23  1.59266
   6758.55  1.59840
   6767.89  1.60417
   6777.24  1.60995
   6786.60  1.61576
   6795.97  1.62159
   6805.36  1.62743
   6814.76  1.63330
   6824.17  1.63919
   6833.60  1.64511
   6843.04  1.65104
   6852.49  1.65699
   6861.95  1.66297
   6871.43  1.66898
   6880.92  1.67501
   6890.43  1.68106
   6899.95  1.68713
   6909.48  1.69322
   6919.02  1.69933
   6928.58  1.70547
   6938.15  1.71163
   6947.73  1.71781
   6957.33  1.72401
   6966.94  1.73024
   6976.56  1.73650
   6986.20  1.74278
   6995.85  1.74908
   7005.51  1.75540
   7015.19  1.76175
   7024.88  1.76811
   7034.58  1.77451
   7044.30  1.78092
   7054.03  1.78736
   7063.77  1.79382
   7073.53  1.80031
   7083.30  1.80682
   7093.08  1.81336
   7102.88  1.81993
   7112.69  1.82652
   7122.52  1.83314
   7132.35  1.83977
   7142.21  1.84643
   7152.07  1.85312
   7161.95  1.85983
   7171.84  1.86657
   7181.75  1.87333
   7191.67  1.88011
   7201.60  1.88692
   7211.55  1.89375
   7221.51  1.90061
   7231.49  1.90750
   7241.47  1.91441
   7251.48  1.92135
   7261.49  1.92830
   7271.52  1.93529
   7281.57  1.94230
   7291.62  1.94934
   7301.70  1.95640
   7311.78  1.96348
   7321.88  1.97060
   7332.00  1.97774
   7342.12  1.98490
   7352.26  1.99209
   7362.42  1.99932
   7372.59  2.00656
   7382.77  2.01383
   7392.97  2.02113
   7403.18  2.02845
   7413.41  2.03580
   7423.65  2.04317
   7433.90  2.05058
   7444.17  2.05802
   7454.45  2.06548
   7464.75  2.07297
   7475.06  2.08049
   7485.39  2.08804
   7495.72  2.09561
   7506.08  2.10321
   7516.45  2.11084
   7526.83  2.11850
   7537.23  2.12618
   7547.64  2.13389
   7558.06  2.14164
   7568.50  2.14942
   7578.96  2.15722
   7589.42  2.16506
   7599.91  2.17292
   7610.40  2.18082
   7620.92  2.18874
   7631.44  2.19669
   7641.98  2.20467
   7652.54  2.21267
   7663.11  2.22071
   7673.70  2.22878
   7684.29  2.23687
   7694.91  2.24500
   7705.54  2.25315
   7716.18  2.26133
   7726.84  2.26955
   7737.51  2.27779
   7748.20  2.28606
   7758.90  2.29437
   7769.62  2.30270
   7780.35  2.31107
   7791.10  2.31946
   7801.86  2.32789
   7812.64  2.33635
   7823.43  2.34483
   7834.23  2.35335
   7845.06  2.36190
   7855.89  2.37048
   7866.74  2.37909
   7877.61  2.38773
   7888.49  2.39641
   7899.39  2.40512
   7910.30  2.41385
   7921.22  2.42262
   7932.17  2.43142
   7943.12  2.44026
   7954.09  2.44912
   7965.08  2.45802
   7976.08  2.46695
   7987.10  2.47592
   7998.13  2.48491
   8009.18  2.49394
   8020.24  2.50300
   8031.32  2.51210
   8042.41  2.52122
   8053.52  2.53039
   8064.65  2.53958
   8075.79  2.54882
   8086.94  2.55808
   8098.11  2.56738
   8109.30  2.57671
   8120.50  2.58607
   8131.71  2.59547
   8142.95  2.60491
   8154.19  2.61438
   8165.46  2.62388
   8176.74  2.63342
   8188.03  2.64299
   8199.34  2.65260
   8210.67  2.66225
   8222.01  2.67193
   8233.36  2.68165
   8244.74  2.69140
   8256.13  2.70118
   8267.53  2.71101
   8278.95  2.72086
   8290.38  2.73076
   8301.83  2.74069
   8313.30  2.75065
   8324.79  2.76066
   8336.28  2.77071
   8347.80  2.78078
   8359.33  2.79090
   8370.88  2.80106
   8382.44  2.81125
   8394.02  2.82148
   8405.61  2.83174
   8417.22  2.84205
   8428.85  2.85239
   8440.49  2.86276
   8452.15  2.87318
   8463.82  2.88363
   8475.51  2.89413
   8487.22  2.90465
   8498.95  2.91522
   8510.68  2.92583
   8522.44  2.93647
   8534.21  2.94715
   8546.00  2.95787
   8557.80  2.96863
   8569.63  2.97944
   8581.46  2.99027
   8593.32  3.00115
   8605.19  3.01207
   8617.07  3.02302
   8628.97  3.03401
   8640.89  3.04505
   8652.83  3.05612
   8664.78  3.06724
   8676.75  3.07840
   8688.73  3.08959
   8700.74  3.10083
   8712.75  3.11211
   8724.79  3.12342
   8736.84  3.13478
   8748.91  3.14617
   8760.99  3.15761
   8773.09  3.16909
   8785.21  3.18061
   8797.35  3.19217
   8809.50  3.20377
   8821.67  3.21542
   8833.85  3.22711
   8846.05  3.23884
   8858.27  3.25061
   8870.51  3.26242
   8882.76  3.27427
   8895.03  3.28617
   8907.32  3.29810
   8919.62  3.31008
   8931.94  3.32211
   8944.28  3.33417
   8956.63  3.34628
   8969.00  3.35844
   8981.39  3.37064
   8993.80  3.38289
   9006.22  3.39517
   9018.66  3.40750
   9031.12  3.41988
   9043.59  3.43230
   9056.08  3.44477
   9068.59  3.45728
   9081.12  3.46984
   9093.66  3.48244
   9106.22  3.49509
   9118.80  3.50778
   9131.40  3.52052
   9144.01  3.53331
   9156.64  3.54614
   9169.29  3.55902
   9181.95  3.57194
   9194.64  3.58490
   9207.34  3.59792
   9220.05  3.61099
   9232.79  3.62410
   9245.54  3.63726
   9258.31  3.65046
   9271.10  3.66372
   9283.91  3.67702
   9296.73  3.69037
   9309.57  3.70377
   9322.43  3.71721
   9335.31  3.73071
   9348.20  3.74425
   9361.12  3.75784
   9374.05  3.77149
   9386.99  3.78518
   9399.96  3.79891
   9412.94  3.81271
   9425.95  3.82655
   9438.97  3.84044
   9452.00  3.85438
   9465.06  3.86837
   9478.13  3.88241
   9491.23  3.89650
   9504.34  3.91064
   9517.46  3.92483
   9530.61  3.93907
   9543.77  3.95337
   9556.96  3.96772
   9570.16  3.98211
   9583.38  3.99657
   9596.61  4.01107
   9609.87  4.02562
   9623.14  4.04022
   9636.44  4.05487
   9649.75  4.06958
   9663.08  4.08434
   9676.42  4.09915
   9689.79  4.11402
   9703.17  4.12894
   9716.58  4.14391
   9730.00  4.15894
   9743.44  4.17402
   9756.89  4.18915
   9770.37  4.20434
   9783.87  4.21957
   9797.38  4.23487
   9810.91  4.25021
   9824.47  4.26561
   9838.04  4.28108
   9851.63  4.29659
   9865.23  4.31216
   9878.86  4.32779
   9892.50  4.34347
   9906.17  4.35921
   9919.85  4.37500
   9933.55  4.39083
   9947.28  4.40673
   9961.02  4.42267
   9974.77  4.43868
   9988.55  4.45475
   10002.3  4.47087
   10016.2  4.48705
   10030.0  4.50329
   10038.1  4.51283
   10046.2  4.52239
   10054.4  4.53198
   10062.5  4.54159
   10070.7  4.55121
   10078.8  4.56085
   10087.0  4.57050
   10095.1  4.58019
   10103.3  4.58988
   10111.5  4.59959
   10119.6  4.60933
   10127.8  4.61909
   10136.0  4.62887
   10144.2  4.63867
   10152.4  4.64848
   10160.7  4.65833
   10168.9  4.66819
   10177.1  4.67807
   10185.3  4.68797
   10193.6  4.69789
   10201.8  4.70784
   10210.1  4.71780
   10218.4  4.72779
   10226.6  4.73780
   10234.9  4.74783
   10243.2  4.75788
   10251.5  4.76794
   10259.8  4.77802
   10268.1  4.78813
   10276.4  4.79826
   10284.7  4.80840
   10293.0  4.81857
   10301.4  4.82877
   10309.7  4.83898
   10318.0  4.84921
   10326.4  4.85946
   10334.7  4.86974
   10343.1  4.88005
   10351.5  4.89037
   10359.9  4.90071
   10368.2  4.91107
   10376.6  4.92146
   10385.0  4.93187
   10393.4  4.94230
   10401.8  4.95275
   10410.3  4.96322
   10418.7  4.97370
   10427.1  4.98421
   10435.6  4.99473
   10444.0  5.00528
   10452.4  5.01586
   10460.9  5.02645
   10469.4  5.03707
   10477.8  5.04770
   10486.3  5.05837
   10494.8  5.06905
   10503.3  5.07976
   10511.8  5.09049
   10520.3  5.10124
   10528.8  5.11202
   10537.3  5.12281
   10545.9  5.13363
   10554.4  5.14447
   10562.9  5.15534
   10571.5  5.16623
   10580.1  5.17713
   10588.6  5.18805
   10597.2  5.19900
   10605.8  5.20997
   10614.3  5.22096
   10622.9  5.23197
   10631.5  5.24301
   10640.1  5.25408
   10648.7  5.26516
   10657.4  5.27627
   10666.0  5.28740
   10674.6  5.29856
   10683.3  5.30973
   10691.9  5.32093
   10700.6  5.33216
   10709.2  5.34341
   10717.9  5.35468
   10726.6  5.36598
   10735.2  5.37730
   10743.9  5.38864
   10752.6  5.40000
   10761.3  5.41137
   10770.0  5.42277
   10778.7  5.43419
   10787.5  5.44565
   10796.2  5.45712
   10804.9  5.46861
   10813.7  5.48013
   10822.4  5.49168
   10831.2  5.50325
   10840.0  5.51484
   10848.7  5.52646
   10857.5  5.53810
   10866.3  5.54977
   10875.1  5.56146
   10883.9  5.57318
   10892.7  5.58492
   10901.5  5.59669
   10910.3  5.60848
   10919.2  5.62029
   10928.0  5.63211
   10936.8  5.64396
   10945.7  5.65583
   10954.5  5.66773
   10963.4  5.67965
   10972.3  5.69160
   10981.2  5.70358
   10990.0  5.71557
   10998.9  5.72759
   11007.8  5.73964
   11016.8  5.75172
   11025.7  5.76382
   11034.6  5.77594
   11043.5  5.78809
   11052.5  5.80027
   11061.4  5.81247
   11070.4  5.82470
   11079.3  5.83695
   11088.3  5.84922
   11097.3  5.86153
   11106.2  5.87384
   11115.2  5.88618
   11124.2  5.89854
   11133.2  5.91094
   11142.2  5.92336
   11151.2  5.93580
   11160.3  5.94826
   11169.3  5.96077
   11178.3  5.97329
   11187.4  5.98584
   11196.4  5.99841
   11205.5  6.01101
   11214.6  6.02364
   11223.6  6.03629
   11232.7  6.04897
   11241.8  6.06168
   11250.9  6.07442
   11260.0  6.08718
   11269.1  6.09996
   11278.3  6.11276
   11287.4  6.12558
   11296.5  6.13844
   11305.7  6.15131
   11314.8  6.16421
   11324.0  6.17714
   11333.1  6.19010
   11342.3  6.20308
   11351.5  6.21609
   11360.7  6.22913
   11369.9  6.24220
   11379.1  6.25529
   11388.3  6.26840
   11397.5  6.28155
   11406.7  6.29472
   11415.9  6.30793
   11425.2  6.32116
   11434.4  6.33442
   11443.7  6.34770
   11452.9  6.36102
   11462.2  6.37434
   11471.5  6.38769
   11480.8  6.40105
   11490.1  6.41446
   11499.4  6.42789
   11508.7  6.44134
   11518.0  6.45482
   11527.3  6.46833
   11536.6  6.48188
   11546.0  6.49545
   11555.3  6.50905
   11564.7  6.52267
   11574.0  6.53633
   11583.4  6.55001
   11592.8  6.56372
   11602.1  6.57746
   11611.5  6.59123
   11620.9  6.60503
   11630.3  6.61885
   11639.7  6.63271
   11649.2  6.64657
   11658.6  6.66046
   11668.0  6.67438
   11677.5  6.68832
   11686.9  6.70229
   11696.4  6.71631
   11705.8  6.73034
   11715.3  6.74440
   11724.8  6.75848
   11734.3  6.77261
   11743.8  6.78676
   11753.3  6.80094
   11762.8  6.81515
   11772.3  6.82939
   11781.8  6.84366
   11791.4  6.85796
   11800.9  6.87228
   11810.5  6.88664
   11820.0  6.90104
   11829.6  6.91545
   11839.2  6.92990
   11848.7  6.94438
   11858.3  6.95889
   11867.9  6.97343
   11877.5  6.98799
   11887.1  7.00259
   11896.8  7.01722
   11906.4  7.03189
   11916.0  7.04658
   11925.7  2.83256
   11935.3  2.83880
   11945.0  2.84506
   11954.6  2.85133
   11964.3  2.85761
   11974.0  2.86391
   11983.7  2.87022
   11993.4  2.87655
   12003.1  2.88288
   12012.8  2.88924
   12022.5  2.89560
   12032.3  2.90198
   12042.0  2.90837
   12051.7  2.91477
   12061.5  2.92119
   12071.3  2.92763
   12081.0  2.93407
   12090.8  2.94053
   12100.6  2.94701
   12110.4  2.95350
   12120.2  2.96000
   12130.0  2.96652
   12139.8  2.97305
   12149.6  2.97960
   12159.5  2.98616
   12169.3  2.99274
   12179.1  2.99933
   12189.0  3.00593
   12198.9  3.01255
   12208.7  3.01919
   12218.6  3.02583
   12228.5  3.03250
   12238.4  3.03918
   12248.3  3.04588
   12258.2  3.05259
   12268.1  3.05931
   12278.1  3.06605
   12288.0  3.07281
   12297.9  3.07958
   12307.9  3.08636
   12317.9  3.09316
   12327.8  3.09998
   12337.8  3.10681
   12347.8  3.11365
   12357.8  3.12051
   12367.8  3.12738
   12377.8  3.13428
   12387.8  3.14118
   12397.8  3.14810
   12407.9  3.15503
   12417.9  3.16199
   12428.0  3.16895
   12438.0  3.17593
   12448.1  3.18292
   12458.2  3.18993
   12468.2  3.19696
   12478.3  3.20400
   12488.4  3.21105
   12498.5  3.21813
   12508.6  3.22522
   12518.8  3.23232
   12528.9  3.23944
   12539.0  3.24657
   12549.2  3.25372
   12559.3  3.26089
   12569.5  3.26807
   12579.7  3.27526
   12589.9  3.28248
   12600.0  3.28971
   12610.2  3.29695
   12620.4  3.30421
   12630.7  3.31149
   12640.9  3.31879
   12651.1  3.32610
   12661.3  3.33342
   12671.6  3.34076
   12681.8  3.34812
   12692.1  3.35550
   12702.4  3.36289
   12712.7  3.37029
   12723.0  3.37772
   12733.2  3.38516
   12743.6  3.39261
   12753.9  3.40008
   12764.2  3.40757
   12774.5  3.41508
   12784.9  3.42260
   12795.2  3.43014
   12805.6  3.43769
   12815.9  3.44527
   12826.3  3.45285
   12836.7  3.46045
   12847.1  3.46807
   12857.5  3.47571
   12867.9  3.48337
   12878.3  3.49103
   12888.7  3.49872
   12899.1  3.50642
   12909.6  3.51415
   12920.0  3.52188
   12930.5  3.52964
   12940.9  3.53741
   12951.4  3.54520
   12961.9  3.55301
   12972.4  3.56083
   12982.9  3.56867
   12993.4  3.57652
   13003.9  3.58440
   13014.4  3.59229
   13024.9  3.60020
   13035.5  3.60813
   13046.0  3.61609
   13056.6  3.62405
   13067.2  3.63203
   13077.7  3.64003
   13088.3  3.64805
   13098.9  3.65609
   13109.5  3.66414
   13120.1  3.67221
   13130.7  3.68030
   13141.4  3.68841
   13152.0  3.69653
   13162.6  3.70467
   13173.3  3.71283
   13184.0  3.72101
   13194.6  3.72921
   13205.3  3.73742
   13216.0  3.74565
   13226.7  3.75391
   13237.4  3.76217
   13248.1  3.77046
   13258.8  3.77876
   13269.6  3.78709
   13280.3  3.79542
   13291.0  3.80378
   13301.8  3.81216
   13312.6  3.82055
   13323.3  3.82897
   13334.1  3.83740
   13344.9  3.84584
   13355.7  3.85431
   13366.5  3.86280
   13377.3  3.87131
   13388.2  3.87983
   13399.0  3.88838
   13409.8  3.89694
   13420.7  3.90552
   13431.5  3.91412
   13442.4  3.92274
   13453.3  3.93138
   13464.2  3.94004
   13475.1  3.94872
   13486.0  3.95741
   13496.9  3.96613
   13507.8  3.97487
   13518.8  3.98362
   13529.7  3.99239
   13540.6  4.00118
   13551.6  4.01000
   13562.6  4.01883
   13573.5  4.02768
   13584.5  4.03655
   13595.5  4.04544
   13606.5  4.05436
   13617.5  4.06328
   13628.6  4.07223
   13639.6  4.08120
   13650.6  4.09019
   13661.7  4.09920
   13672.7  4.10822
   13683.8  4.11727
   13694.9  4.12633
   13705.9  4.13542
   13717.0  4.14452
   13728.1  4.15364
   13739.2  2.98471
   13750.4  2.99115
   13761.5  2.99761
   13772.6  3.00408
   13783.8  3.01056
   13794.9  3.01706
   13806.1  3.02357
   13817.3  3.03010
   13828.4  3.03664
   13839.6  3.04319
   13850.8  3.04976
   13862.0  3.05634
   13873.3  3.06294
   13884.5  3.06955
   13895.7  3.07618
   13907.0  3.08282
   13918.2  3.08948
   13929.5  3.09614
   13940.8  3.10283
   13952.0  3.10953
   13963.3  3.11624
   13974.6  3.12297
   13985.9  3.12971
   13997.3  3.13647
   14008.6  3.14324
   14019.9  3.15003
   14031.3  3.15683
   14042.6  3.16365
   14054.0  3.17048
   14065.4  3.17732
   14076.7  3.18418
   14088.1  3.19106
   14099.5  3.19795
   14111.0  3.20485
   14122.4  3.21177
   14133.8  3.21870
   14145.2  3.22565
   14156.7  3.23261
   14168.1  3.23959
   14179.6  3.24658
   14191.1  3.25360
   14202.6  3.26062
   14214.1  3.26766
   14225.6  3.27471
   14237.1  3.28178
   14248.6  3.28887
   14260.1  3.29597
   14271.7  3.30308
   14283.2  3.31021
   14294.8  3.31736
   14306.3  3.32452
   14317.9  3.33170
   14329.5  3.33889
   14341.1  3.34610
   14352.7  3.32235
   14364.3  2.92334
   14376.0  2.92918
   14387.6  2.93503
   14399.2  2.94091
   14410.9  2.94678
   14422.5  2.95267
   14434.2  2.95857
   14445.9  2.96449
   14457.6  2.97041
   14469.3  2.97635
   14481.0  2.98230
   14492.7  2.98826
   14504.4  2.99424
   14516.2  3.00022
   14527.9  3.00622
   14539.7  3.01222
   14551.5  3.01825
   14563.2  3.02428
   14575.0  3.03032
   14586.8  3.03638
   14598.6  3.04245
   14610.4  3.04853
   14622.3  3.05462
   14634.1  3.06072
   14645.9  3.06684
   14657.8  3.07297
   14669.6  3.07911
   14681.5  3.08526
   14693.4  3.09143
   14705.3  3.09761
   14717.2  3.10380
   14729.1  3.11000
   14741.0  3.11621
   14752.9  3.12244
   14764.9  3.12868
   14776.8  3.13493
   14788.8  3.14119
   14800.8  3.14748
   14812.7  3.15377
   14824.7  3.16010
   14836.7  3.16644
   14848.7  3.17279
   14860.7  3.17916
   14872.8  3.18554
   14884.8  3.19193
   14896.9  3.19834
   14908.9  3.20476
   14921.0  3.21119
   14933.0  3.21763
   14945.1  3.22409
   14957.2  3.23056
   14969.3  3.23704
   14981.4  3.24354
   14993.6  3.25005
   15005.7  3.25657
   15017.8  3.26310
   15030.0  3.26965
   15038.6  3.27431
   15047.3  3.27897
   15055.9  3.28366
   15064.6  3.28836
   15073.2  3.29306
   15081.9  3.29777
   15090.6  3.30249
   15099.2  3.30721
   15107.9  3.31194
   15116.6  3.31667
   15125.3  3.32142
   15134.0  3.32617
   15142.6  3.33092
   15151.3  3.33569
   15160.0  3.34046
   15168.8  3.34524
   15177.5  3.35002
   15186.2  3.35481
   15194.9  3.35961
   15203.6  3.36441
   15212.4  3.36923
   15221.1  3.37404
   15229.9  3.37887
   15238.6  3.38370
   15247.4  3.38854
   15256.1  3.39339
   15264.9  3.39824
   15273.7  3.40310
   15282.4  3.40797
   15291.2  3.41284
   15300.0  3.41774
   15308.8  3.42264
   15317.6  3.42756
   15326.4  3.43248
   15335.2  3.43741
   15344.0  3.44234
   15352.8  3.44728
   15361.6  3.45223
   15370.5  3.45719
   15379.3  3.46215
   15388.1  3.46712
   15397.0  3.47210
   15405.8  3.47708
   15414.7  3.48208
   15423.5  3.48707
   15432.4  3.49208
   15441.3  3.49709
   15450.1  3.50212
   15459.0  3.50714
   15467.9  3.51218
   15476.8  3.51722
   15485.7  3.52227
   15494.6  3.52732
   15503.5  3.53239
   15512.4  3.53746
   15521.3  3.54254
   15530.2  3.54762
   15539.1  3.55271
   15548.1  3.55784
   15557.0  3.56296
   15565.9  3.56810
   15574.9  3.57324
   15583.8  3.57839
   15592.8  3.58355
   15601.7  3.58871
   15610.7  3.59388
   15619.7  3.59907
   15628.6  3.60425
   15637.6  3.60944
   15646.6  3.61465
   15655.6  3.61986
   15664.6  3.62507
   15673.6  3.63030
   15682.6  3.63553
   15691.6  3.64077
   15700.6  3.64602
   15709.6  3.65127
   15718.7  3.65654
   15727.7  3.66180
   15736.7  3.66708
   15745.8  3.67237
   15754.8  3.67766
   15763.9  3.68296
   15772.9  3.68827
   15782.0  3.69359
   15791.1  3.69891
   15800.1  3.70425
   15809.2  3.70961
   15818.3  3.71498
   15827.4  3.72035
   15836.5  3.72572
   15845.6  3.73111
   15854.7  3.73651
   15863.8  3.74191
   15872.9  3.74732
   15882.0  3.75273
   15891.1  3.75816
   15900.3  3.76360
   15909.4  3.76904
   15918.5  3.77449
   15927.7  3.77995
   15936.8  3.78541
   15946.0  3.79088
   15955.2  3.79637
   15964.3  3.80185
   15973.5  3.80735
   15982.7  3.81285
   15991.9  3.81837
   16001.0  3.82389
   16010.2  3.82941
   16019.4  3.83495
   16028.6  3.84050
   16037.8  3.84605
   16047.1  3.85161
   16056.3  3.85720
   16065.5  3.86280
   16074.7  3.86840
   16084.0  3.87401
   16093.2  3.87963
   16102.5  3.88526
   16111.7  3.89090
   16121.0  3.89654
   16130.2  3.90220
   16139.5  3.90786
   16148.8  3.91352
   16158.0  3.91920
   16167.3  3.92489
   16176.6  3.93058
   16185.9  3.93628
   16195.2  3.94200
   16204.5  3.94772
   16213.8  3.95344
   16223.1  3.95918
   16232.5  3.96492
   16241.8  3.97067
   16251.1  3.97643
   16260.5  3.98220
   16269.8  3.98798
   16279.1  3.99376
   16288.5  3.99956
   16297.9  4.00536
   16307.2  4.01118
   16316.6  4.01701
   16326.0  4.02286
   16335.3  4.02872
   16344.7  4.03459
   16354.1  4.04046
   16363.5  4.04634
   16372.9  4.05223
   16382.3  4.05813
   16391.7  4.06404
   16401.2  4.06995
   16410.6  4.07588
   16420.0  4.08181
   16429.4  4.08775
   16438.9  4.09371
   16448.3  4.09967
   16457.8  4.10563
   16467.2  4.11161
   16476.7  4.11760
   16486.2  4.12359
   16495.6  4.12959
   16505.1  4.13560
   16514.6  4.14163
   16524.1  4.14766
   16533.6  4.15369
   16543.1  4.15974
   16552.6  4.16580
   16562.1  4.17186
   16571.6  4.17794
   16581.1  4.18404
   16590.6  4.19015
   16600.2  4.19627
   16609.7  4.20240
   16619.3  4.20854
   16628.8  4.21468
   16638.4  4.22083
   16647.9  4.22699
   16657.5  4.23317
   16667.1  4.23935
   16676.6  4.24554
   16686.2  4.25174
   16695.8  4.25795
   16705.4  4.26417
   16715.0  4.27039
   16724.6  4.27663
   16734.2  4.28288
   16743.8  4.28913
   16753.4  4.29539
   16763.1  4.30166
   16772.7  4.30795
   16782.3  4.31424
   16792.0  4.32054
   16801.6  4.32685
   16811.3  4.33317
   16820.9  4.33949
   16830.6  4.34583
   16840.3  4.35218
   16849.9  4.35856
   16859.6  4.36494
   16869.3  4.37134
   16879.0  4.37774
   16888.7  4.38415
   16898.4  4.39057
   16908.1  4.39701
   16917.8  4.40345
   16927.5  4.40990
   16937.3  4.41636
   16947.0  4.42283
   16956.7  4.42931
   16966.5  4.43580
   16976.2  4.44229
   16986.0  4.44880
   16995.7  4.45532
   17005.5  4.46184
   17015.3  4.46838
   17025.0  4.47493
   17034.8  4.48148
   17044.6  4.48805
   17054.4  4.49463
   17064.2  4.50121
   17074.0  4.50780
   17083.8  4.51440
   17093.6  4.52102
   17103.5  4.52764
   17113.3  4.53428
   17123.1  4.54094
   17133.0  4.54761
   17142.8  4.55429
   17152.6  4.56098
   17162.5  4.56768
   17172.4  4.57440
   17182.2  4.58111
   17192.1  4.58784
   17202.0  4.59459
   17211.9  4.60134
   17221.7  4.60809
   17231.6  4.61486
   17241.5  4.62165
   17251.4  4.62843
   17261.4  4.63523
   17271.3  4.64204
   17281.2  4.64886
   17291.1  4.65569
   17301.1  4.66253
   17311.0  4.66938
   17320.9  4.67624
   17330.9  4.68311
   17340.9  4.68999
   17350.8  4.69688
   17360.8  4.70378
   17370.8  4.71069
   17380.7  4.71761
   17390.7  4.72455
   17400.7  4.73151
   17410.7  4.73848
   17420.7  4.74546
   17430.7  4.75245
   17440.7  4.75945
   17450.8  4.76646
   17460.8  4.77348
   17470.8  4.78052
   17480.9  4.78756
   17490.9  4.79460
   17500.9  4.80167
   17511.0  4.80874
   17521.1  4.81583
   17531.1  4.82292
   17541.2  4.83003
   17551.3  4.83714
   17561.4  4.84426
   17571.5  4.85140
   17581.6  4.85855
   17591.7  4.86570
   17601.8  4.87287
   17611.9  4.88004
   17622.0  4.88724
   17632.1  4.89443
   17642.2  4.90164
   17652.4  4.90887
   17662.5  4.91610
   17672.7  4.92335
   17682.8  4.93062
   17693.0  4.93791
   17703.1  4.94520
   17713.3  4.95251
   17723.5  4.95982
   17733.7  4.96715
   17743.9  4.97449
   17754.1  4.98184
   17764.3  4.98920
   17774.5  4.99657
   17784.7  5.00395
   17794.9  5.01135
   17805.1  5.01875
   17815.4  5.02617
   17825.6  5.03359
   17835.8  5.04103
   17846.1  5.04848
   17856.3  5.05593
   17866.6  5.06340
   17876.9  5.07088
   17887.1  5.07838
   17897.4  5.08588
   17907.7  5.09339
   17918.0  5.10091
   17928.3  5.10845
   17938.6  5.11600
   17948.9  5.12356
   17959.2  5.13114
   17969.5  5.13874
   17979.8  5.14635
   17990.2  5.15397
   18000.5  5.16161
   18010.8  5.16925
   18021.2  5.17690
   18031.5  5.18457
   18041.9  5.19225
   18052.3  5.19994
   18062.6  5.20764
   18073.0  5.21535
   18083.4  5.22308
   18093.8  5.23081
   18104.2  5.23856
   18114.6  5.24632
   18125.0  5.25409
   18135.4  5.26187
   18145.8  5.26966
   18156.2  5.27746
   18166.7  5.28528
   18177.1  5.29311
   18187.6  5.30095
   18198.0  5.30880
   18208.5  5.31666
   18218.9  5.32454
   18229.4  5.33242
   18239.9  5.34032
   18250.3  5.34824
   18260.8  5.35618
   18271.3  5.36414
   18281.8  5.37210
   18292.3  5.38008
   18302.8  5.38806
   18313.3  5.39607
   18323.9  5.40408
   18334.4  5.41210
   18344.9  5.42014
   18355.5  5.42819
   18366.0  5.43625
   18376.6  5.44432
   18387.1  5.45240
   18397.7  5.46050
   18408.3  5.46861
   18418.8  5.47672
   18429.4  5.48485
   18440.0  5.49301
   18450.6  5.50116
   18461.2  5.50932
   18471.8  5.51751
   18482.4  5.52570
   18493.0  5.53390
   18503.7  5.54212
   18514.3  5.55035
   18524.9  5.55859
   18535.6  5.56684
   18546.2  5.57512
   18556.9  5.58343
   18567.5  5.59174
   18578.2  5.60006
   18588.9  5.60839
   18599.6  5.61675
   18610.2  5.62511
   18620.9  5.63348
   18631.6  5.64187
   18642.3  5.65027
   18653.1  5.65868
   18663.8  5.66710
   18674.5  5.67554
   18685.2  5.68399
   18696.0  5.69245
   18706.7  5.70092
   18717.4  5.70941
   18728.2  5.71791
   18739.0  5.72642
   18749.7  5.73494
   18760.5  5.74348
   18771.3  5.75203
   18782.1  5.76059
   18792.9  5.76917
   18803.6  5.77776
   18814.5  5.78635
   18825.3  5.79497
   18836.1  5.80360
   18846.9  5.81225
   18857.7  5.82092
   18868.6  5.82960
   18879.4  5.83831
   18890.2  5.84702
   18901.1  5.85574
   18912.0  5.86447
   18922.8  5.87323
   18933.7  5.88199
   18944.6  5.89076
   18955.5  5.89956
   18966.4  5.90836
   18977.2  5.91717
   18988.2  5.92600
   18999.1  5.93484
   19010.0  5.94369
   19020.9  5.95256
   19031.8  5.96144
   19042.8  5.97034
   19053.7  5.97925
   19064.6  5.98816
   19075.6  5.99709
   19086.6  6.00605
   19097.5  6.01501
   19108.5  6.02398
   19119.5  6.03297
   19130.5  6.04197
   19141.5  6.05098
   19152.4  6.06003
   19163.5  6.06910
   19174.5  6.07817
   19185.5  6.08726
   19196.5  6.09636
   19207.5  6.10548
   19218.6  6.11461
   19229.6  6.12375
   19240.7  6.13291
   19251.7  6.14209
   19262.8  6.15127
   19273.8  6.16046
   19284.9  6.16968
   19296.0  6.17891
   19307.1  6.18815
   19318.2  6.19740
   19329.3  6.20667
   19340.4  6.21595
   19351.5  6.22524
   19362.6  6.23455
   19373.7  6.24388
   19384.9  6.25321
   19396.0  6.26256
   19407.1  6.27192
   19418.3  6.28131
   19429.4  6.29070
   19440.6  6.30011
   19451.8  6.30952
   19463.0  6.31898
   19474.1  6.32845
   19485.3  6.33793
   19496.5  6.34744
   19507.7  6.35694
   19518.9  6.36647
   19530.1  6.37601
   19541.4  6.38557
   19552.6  6.39513
   19563.8  6.40471
   19575.1  6.41431
   19586.3  6.42393
   19597.6  6.43355
   19608.8  6.44319
   19620.1  6.45284
   19631.4  6.46252
   19642.6  6.47220
   19653.9  6.48189
   19665.2  6.49161
   19676.5  6.50134
   19687.8  6.51108
   19699.1  6.52083
   19710.4  6.53061
   19721.8  6.54039
   19733.1  6.55019
   19744.4  6.56000
   19755.8  6.56984
   19767.1  6.57968
   19778.5  6.58956
   19789.9  6.59945
   19801.2  6.60937
   19812.6  6.61929
   19824.0  6.62923
   19835.4  6.63920
   19846.8  6.64916
   19858.2  6.65915
   19869.6  6.66915
   19881.0  6.67917
   19892.4  6.68920
   19903.8  6.69924
   19915.3  6.70930
   19926.7  6.71939
   19938.2  6.72947
   19949.6  6.73958
   19961.1  6.74970
   19972.6  6.75984
   19984.0  6.76999
   19995.5  6.78015
   20007.0  6.79034
   20018.5  6.80054
   20030.0  6.81075
   20038.9  6.81868
   20047.9  6.82663
   20056.8  6.83459
   20065.7  6.84255
   20074.7  6.85053
   20083.6  6.85850
   20092.6  6.86650
   20101.5  6.87453
   20110.5  6.88255
   20119.5  6.89058
   20128.4  6.89863
   20137.4  6.90668
   20146.4  6.91474
   20155.4  6.92282
   20164.4  6.93090
   20173.3  6.93899
   20182.3  6.94710
   20191.3  6.95521
   20200.3  6.96333
   20209.3  6.97146
   20218.3  6.97959
   20227.4  6.98775
   20236.4  6.99590
   20245.4  7.00407
   20254.4  7.01224
   20263.5  7.02044
   20272.5  7.02863
   20281.5  7.03684
   20290.6  7.04505
   20299.6  7.05327
   20308.7  7.06152
   20317.7  7.06976
   20326.8  7.07801
   20335.8  7.08628
   20344.9  7.09455
   20354.0  7.10283
   20363.0  7.11113
   20372.1  7.11942
   20381.2  7.12773
   20390.3  7.13606
   20399.4  7.14439
   20408.5  7.15273
   20417.6  7.16109
   20426.7  7.16947
   20435.8  7.17785
   20444.9  7.18626
   20454.0  7.19466
   20463.1  7.20308
   20472.2  7.21151
   20481.4  7.21994
   20490.5  7.22839
   20499.6  7.23685
   20508.8  7.24532
   20517.9  7.25379
   20527.1  7.26228
   20536.2  7.27078
   20545.4  7.27928
   20554.5  7.28780
   20563.7  7.29633
   20572.9  7.30486
   20582.0  7.31341
   20591.2  7.32196
   20600.4  7.33053
   20609.6  7.33911
   20618.8  7.34769
   20627.9  7.35629
   20637.1  7.36490
   20646.3  7.37351
   20655.5  7.38213
   20664.8  7.39078
   20674.0  7.39942
   20683.2  7.40807
   20692.4  7.41675
   20701.6  7.42542
   20710.8  7.43411
   20720.1  7.44281
   20729.3  7.45151
   20738.6  7.46023
   20747.8  7.46897
   20757.1  7.47772
   20766.3  7.48648
   20775.6  7.49527
   20784.8  7.50405
   20794.1  7.51284
   20803.4  7.52165
   20812.6  7.53046
   20821.9  7.53928
   20831.2  7.54813
   20840.5  7.55697
   20849.8  7.56582
   20859.1  7.57470
   20868.4  7.58357
   20877.7  7.59247
   20887.0  7.60136
   20896.3  7.61027
   20905.6  7.61919
   20914.9  7.62812
   20924.2  7.63706
   20933.6  7.64601
   20942.9  7.65497
   20952.2  7.66394
   20961.6  7.67293
   20970.9  7.68192
   20980.3  7.69092
   20989.6  7.69994
   20999.0  7.70896
   21008.3  7.71799
   21017.7  7.72704
   21027.1  7.73609
   21036.5  7.74516
   21045.8  7.75424
   21055.2  7.76332
   21064.6  7.77242
   21074.0  7.78154
   21083.4  7.79066
   21092.8  7.79981
   21102.2  7.80897
   21111.6  7.81814
   21121.0  7.82731
   21130.4  7.83651
   21139.8  7.84571
   21149.3  7.85492
   21158.7  7.86414
   21168.1  7.87337
   21177.6  7.88262
   21187.0  7.89188
   21196.4  7.90114
   21205.9  7.91041
   21215.3  7.91971
   21224.8  7.92900
   21234.3  7.93831
   21243.7  7.94764
   21253.2  7.95696
   21262.7  7.96630
   21272.2  7.97566
   21281.6  7.98502
   21291.1  7.99439
   21300.6  8.00379
   21310.1  8.01318
   21319.6  8.02259
   21329.1  8.03201
   21338.6  8.04144
   21348.1  8.05088
   21357.7  8.06034
   21367.2  8.06980
   21376.7  8.07927
   21386.2  8.08876
   21395.8  8.09825
   21405.3  8.10776
   21414.8  8.11728
   21424.4  8.12682
   21433.9  8.13638
   21443.5  8.14595
   21453.1  8.15553
   21462.6  8.16512
   21472.2  8.17473
   21481.8  8.18434
   21491.3  8.19396
   21500.9  8.20360
   21510.5  8.21325
   21520.1  8.22290
   21529.7  8.23258
   21539.3  8.24226
   21548.9  8.25195
   21558.5  8.26166
   21568.1  8.27138
   21577.7  8.28110
   21587.3  8.29085
   21597.0  8.30059
   21606.6  8.31035
   21616.2  8.32013
   21625.9  8.32991
   21635.5  8.33971
   21645.1  8.34952
   21654.8  8.35934
   21664.4  8.36916
   21674.1  8.37902
   21683.8  8.38887
   21693.4  8.39873
   21703.1  8.40861
   21712.8  8.41850
   21722.5  8.42841
   21732.1  8.43832
   21741.8  8.44823
   21751.5  8.45818
   21761.2  8.46812
   21770.9  8.47809
   21780.6  8.48808
   21790.3  8.49808
   21800.0  8.50809
   21809.8  8.51812
   21819.5  8.52816
   21829.2  8.53820
   21838.9  8.54827
   21848.7  8.55833
   21858.4  8.56841
   21868.2  8.57852
   21877.9  8.58862
   21887.7  8.59873
   21897.4  8.60888
   21907.2  8.61901
   21916.9  8.62916
   21926.7  8.63934
   21936.5  8.64951
   21946.3  8.65970
   21956.1  8.66991
   21965.8  8.68012
   21975.6  8.69034
   21985.4  8.70059
   21995.2  8.71084
   22005.0  8.72110
   22014.8  8.73138
   22024.7  8.74166
   22034.5  8.75196
   22044.3  8.76228
   22054.1  8.77260
   22064.0  8.78293
   22073.8  8.79329
   22083.6  8.80364
   22093.5  8.81401
   22103.3  8.82440
   22113.2  8.83479
   22123.0  8.84521
   22132.9  8.85565
   22142.8  8.86610
   22152.6  8.87656
   22162.5  8.88704
   22172.4  8.89753
   22182.3  8.90802
   22192.2  8.91854
   22202.1  8.92906
   22212.0  8.93959
   22221.9  8.95015
   22231.8  8.96071
   22241.7  8.97128
   22251.6  8.98187
   22261.5  8.99247
   22271.4  9.00308
   22281.4  9.01371
   22291.3  9.02434
   22301.2  9.03499
   22311.2  9.04566
   22321.1  9.05633
   22331.1  9.06701
   22341.0  9.07772
   22351.0  9.08842
   22360.9  9.09916
   22370.9  9.10989
   22380.9  9.12064
   22390.9  9.13141
   22400.8  9.14218
   22410.8  9.15296
   22420.8  9.16376
   22430.8  9.17458
   22440.8  9.18540
   22450.8  9.19625
   22460.8  9.20710
   22470.8  9.21796
   22480.9  9.22886
   22490.9  9.23976
   22500.9  9.25067
   22510.9  9.26162
   22521.0  9.27256
   22531.0  9.28351
   22541.1  9.29449
   22551.1  9.30548
   22561.2  9.31647
   22571.2  9.32749
   22581.3  9.33851
   22591.3  9.34954
   22601.4  9.36060
   22611.5  9.37166
   22621.6  9.38274
   22631.7  9.39383
   22641.7  9.40493
   22651.8  9.41604
   22661.9  9.42718
   22672.0  9.43832
   22682.1  9.44947
   22692.3  9.46065
   22702.4  9.47182
   22712.5  9.48301
   22722.6  9.49423
   22732.7  9.50545
   22742.9  9.51668
   22753.0  9.52793
   22763.2  9.53919
   22773.3  9.55046
   22783.5  9.56176
   22793.6  9.57305
   22803.8  9.58436
   22813.9  9.59570
   22824.1  9.60703
   22834.3  9.61838
   22844.5  9.62977
   22854.7  9.64116
   22864.8  9.65257
   22875.0  9.66401
   22885.2  9.67544
   22895.4  9.68688
   22905.6  9.69836
   22915.9  9.70984
   22926.1  9.72132
   22936.3  9.73284
   22946.5  9.74435
   22956.7  9.75588
   22967.0  9.76744
   22977.2  9.77900
   22987.5  9.79056
   22997.7  9.80216
   23008.0  9.81376
   23018.2  9.82537
   23028.5  9.83701
   23038.7  9.84865
   23049.0  9.86030
   23059.3  9.87198
   23069.6  9.88366
   23079.8  9.89535
   23090.1  9.90707
   23100.4  9.91879
   23110.7  9.93053
   23121.0  9.94229
   23131.3  9.95405
   23141.7  9.96583
   23152.0  9.97764
   23162.3  9.98944
   23172.6  10.0013
   23182.9  10.0131
   23193.3  10.0249
   23203.6  10.0368
   23214.0  10.0487
   23224.3  10.0606
   23234.7  10.0726
   23245.0  10.0845
   23255.4  10.0964
   23265.8  10.1084
   23276.1  10.1204
   23286.5  10.1324
   23296.9  10.1444
   23307.3  10.1564
   23317.7  10.1685
   23328.0  10.1805
   23338.4  10.1926
   23348.9  10.2047
   23359.3  10.2168
   23369.7  10.2289
   23380.1  10.2410
   23390.5  10.2531
   23400.9  10.2653
   23411.4  10.2774
   23421.8  10.2896
   23432.2  10.3018
   23442.7  10.3140
   23453.1  10.3263
   23463.6  10.3385
   23474.1  10.3507
   23484.5  10.3630
   23495.0  10.3753
   23505.5  10.3876
   23515.9  10.3999
   23526.4  10.4122
   23536.9  10.4246
   23547.4  10.4369
   23557.9  10.4493
   23568.4  10.4617
   23578.9  10.4741
   23589.4  10.4865
   23599.9  10.4990
   23610.5  10.5114
   23621.0  10.5239
   23631.5  10.5364
   23642.1  10.5489
   23652.6  10.5614
   23663.1  10.5739
   23673.7  10.5865
   23684.2  10.5991
   23694.8  10.6116
   23705.4  10.6243
   23715.9  10.6369
   23726.5  10.6495
   23737.1  10.6621
   23747.7  10.6748
   23758.2  10.6874
   23768.8  10.7001
   23779.4  10.7128
   23790.0  10.7255
   23800.6  10.7383
   23811.2  10.7510
   23821.9  10.7638
   23832.5  10.7766
   23843.1  10.7894
   23853.7  10.8022
   23864.4  10.8150
   23875.0  10.8278
   23885.7  10.8407
   23896.3  10.8535
   23907.0  10.8664
   23917.6  10.8793
   23928.3  10.8922
   23938.9  10.9052
   23949.6  10.9181
   23960.3  10.9311
   23971.0  10.9440
   23981.7  10.9571
   23992.3  10.9701
   24003.0  10.9831
   24013.7  10.9962
   24024.4  11.0092
   24035.2  11.0223
   24045.9  11.0354
   24056.6  11.0485
   24067.3  11.0617
   24078.0  11.0748
   24088.8  11.0880
   24099.5  11.1012
   24110.3  11.1144
   24121.0  11.1276
   24131.8  11.1408
   24142.5  11.1540
   24153.3  11.1673
   24164.0  11.1806
   24174.8  11.1939
   24185.6  11.2072
   24196.4  11.2205
   24207.2  11.2338
   24218.0  11.2472
   24228.7  11.2605
   24239.5  11.2739
   24250.4  11.2873
   24261.2  11.3007
   24272.0  11.3142
   24282.8  11.3276
   24293.6  11.3411
   24304.5  11.3546
   24315.3  11.3680
   24326.1  11.3815
   24337.0  11.3951
   24347.8  11.4086
   24358.7  11.4222
   24369.5  11.4358
   24380.4  11.4494
   24391.3  11.4630
   24402.1  11.4767
   24413.0  11.4903
   24423.9  11.5040
   24434.8  11.5177
   24445.7  11.5314
   24456.6  11.5451
   24467.5  11.5589
   24478.4  11.5726
   24489.3  11.5864
   24500.2  11.6002
   24511.1  11.6140
   24522.1  11.6278
   24533.0  11.6416
   24543.9  11.6555
   24554.9  11.6693
   24565.8  11.6832
   24576.8  11.6971
   24587.7  11.7110
   24598.7  11.7250
   24609.7  11.7389
   24620.6  11.7529
   24631.6  11.7669
   24642.6  11.7809
   24653.6  11.7949
   24664.6  11.8089
   24675.6  11.8230
   24686.6  11.8371
   24697.6  11.8512
   24708.6  11.8652
   24719.6  11.8794
   24730.6  11.8935
   24741.6  11.9077
   24752.7  11.9218
   24763.7  11.9360
   24774.7  11.9503
   24785.8  11.9645
   24796.8  11.9787
   24807.9  11.9930
   24818.9  12.0073
   24830.0  12.0216
   24841.1  12.0359
   24852.1  12.0503
   24863.2  12.0646
   24874.3  12.0790
   24885.4  12.0934
   24896.5  12.1078
   24907.6  12.1222
   24918.7  12.1367
   24929.8  12.1511
   24940.9  12.1656
   24952.0  12.1801
   24963.2  12.1946
   24974.3  12.2091
   24985.4  12.2237
   24996.6  12.2382
   25007.7  12.2528
   25018.8  12.2674
   25030.0  12.2820
   25039.1  12.2939
   25048.1  12.3058
   25057.2  12.3177
   25066.3  12.3296
   25075.4  12.3416
   25084.5  12.3535
   25093.5  12.3655
   25102.6  12.3775
   25111.7  12.3894
   25120.8  12.4014
   25129.9  12.4134
   25139.0  12.4255
   25148.1  12.4375
   25157.3  12.4496
   25166.4  12.4616
   25175.5  12.4737
   25184.6  12.4858
   25193.7  12.4979
   25202.9  12.5100
   25212.0  12.5221
   25221.1  12.5343
   25230.3  12.5464
   25239.4  12.5586
   25248.6  12.5708
   25257.7  12.5830
   25266.9  12.5952
   25276.0  12.6074
   25285.2  12.6196
   25294.3  12.6318
   25303.5  12.6441
   25312.7  12.6563
   25321.8  12.6686
   25331.0  12.6809
   25340.2  12.6931
   25349.4  12.7055
   25358.5  12.7178
   25367.7  12.7301
   25376.9  12.7424
   25386.1  12.7548
   25395.3  12.7672
   25404.5  12.7795
   25413.7  12.7919
   25422.9  12.8043
   25432.1  12.8167
   25441.4  12.8292
   25450.6  12.8416
   25459.8  12.8540
   25469.0  12.8665
   25478.2  12.8790
   25487.5  12.8915
   25496.7  12.9040
   25506.0  12.9165
   25515.2  12.9290
   25524.4  12.9415
   25533.7  12.9541
   25542.9  12.9666
   25552.2  12.9792
   25561.4  12.9918
   25570.7  13.0044
   25580.0  13.0170
   25589.2  13.0296
   25598.5  13.0423
   25607.8  13.0550
   25617.1  13.0676
   25626.3  13.0803
   25635.6  13.0930
   25644.9  13.1057
   25654.2  13.1184
   25663.5  13.1312
   25672.8  13.1439
   25682.1  13.1567
   25691.4  13.1694
   25700.7  13.1822
   25710.0  13.1950
   25719.3  13.2078
   25728.7  13.2206
   25738.0  13.2335
   25747.3  13.2463
   25756.6  13.2591
   25766.0  13.2720
   25775.3  13.2849
   25784.6  13.2978
   25794.0  13.3107
   25803.3  13.3236
   25812.7  13.3365
   25822.0  13.3495
   25831.4  13.3624
   25840.7  13.3754
   25850.1  13.3884
   25859.5  13.4014
   25868.8  13.4144
   25878.2  13.4274
   25887.6  13.4404
   25897.0  13.4535
   25906.4  13.4665
   25915.7  13.4796
   25925.1  13.4927
   25934.5  13.5058
   25943.9  13.5189
   25953.3  13.5320
   25962.7  13.5451
   25972.1  13.5583
   25981.5  13.5715
   25991.0  13.5846
   26000.4  13.5978
   26009.8  13.6110
   26019.2  13.6243
   26028.6  13.6375
   26038.1  13.6508
   26047.5  13.6640
   26056.9  13.6773
   26066.4  13.6906
   26075.8  13.7039
   26085.3  13.7172
   26094.7  13.7305
   26104.2  13.7438
   26113.6  13.7572
   26123.1  13.7706
   26132.6  13.7840
   26142.0  13.7974
   26151.5  13.8108
   26161.0  13.8242
   26170.5  13.8376
   26179.9  13.8510
   26189.4  13.8645
   26198.9  13.8780
   26208.4  13.8915
   26217.9  13.9050
   26227.4  13.9185
   26236.9  13.9320
   26246.4  13.9455
   26255.9  13.9591
   26265.4  13.9726
   26274.9  13.9862
   26284.5  13.9998
   26294.0  14.0134
   26303.5  14.0270
   26313.0  14.0406
   26322.6  14.0543
   26332.1  14.0679
   26341.7  14.0816
   26351.2  14.0953
   26360.7  14.1090
   26370.3  14.1227
   26379.9  14.1364
   26389.4  14.1501
   26399.0  14.1639
   26408.5  14.1777
   26418.1  14.1915
   26427.7  14.2053
   26437.2  14.2191
   26446.8  14.2329
   26456.4  14.2467
   26466.0  14.2606
   26475.6  14.2745
   26485.2  14.2883
   26494.8  14.3022
   26504.4  14.3161
   26514.0  14.3301
   26523.6  14.3440
   26533.2  14.3579
   26542.8  14.3719
   26552.4  14.3859
   26562.0  14.3999
   26571.7  14.4139
   26581.3  14.4279
   26590.9  14.4419
   26600.6  14.4560
   26610.2  14.4700
   26619.8  14.4841
   26629.5  14.4982
   26639.1  14.5123
   26648.8  14.5264
   26658.4  14.5405
   26668.1  14.5546
   26677.8  14.5688
   26687.4  14.5830
   26697.1  14.5972
   26706.8  14.6113
   26716.4  14.6255
   26726.1  14.6398
   26735.8  14.6540
   26745.5  14.6683
   26755.2  14.6825
   26764.9  14.6968
   26774.6  14.7111
   26784.3  14.7254
   26794.0  14.7397
   26803.7  14.7540
   26813.4  14.7684
   26823.1  14.7828
   26832.8  14.7971
   26842.5  14.8115
   26852.3  14.8260
   26862.0  14.8404
   26871.7  14.8548
   26881.5  14.8693
   26891.2  14.8838
   26901.0  14.8982
   26910.7  14.9128
   26920.5  14.9273
   26930.2  14.9418
   26940.0  14.9564
   26949.7  14.9709
   26959.5  14.9855
   26969.3  15.0001
   26979.0  15.0147
   26988.8  15.0293
   26998.6  15.0439
   27008.4  15.0586
   27018.1  15.0732
   27027.9  15.0879
   27037.7  15.1026
   27047.5  15.1173
   27057.3  15.1320
   27067.1  15.1467
   27076.9  15.1614
   27086.7  15.1762
   27096.6  15.1910
   27106.4  15.2058
   27116.2  15.2206
   27126.0  15.2354
   27135.8  15.2502
   27145.7  15.2650
   27155.5  15.2799
   27165.4  15.2948
   27175.2  15.3096
   27185.0  15.3246
   27194.9  15.3394
   27204.7  15.3544
   27214.6  15.3693
   27224.5  15.3843
   27234.3  15.3993
   27244.2  15.4143
   27254.1  15.4293
   27263.9  15.4443
   27273.8  15.4593
   27283.7  15.4744
   27293.6  15.4895
   27303.5  15.5046
   27313.4  15.5197
   27323.3  15.5348
   27333.2  15.5499
   27343.1  15.5651
   27353.0  15.5802
   27362.9  15.5954
   27372.8  15.6106
   27382.7  15.6258
   27392.6  15.6410
   27402.6  15.6563
   27412.5  15.6715
   27422.4  15.6868
   27432.3  15.7021
   27442.3  15.7174
   27452.2  15.7327
   27462.2  15.7480
   27472.1  15.7633
   27482.1  15.7787
   27492.0  15.7941
   27502.0  15.8095
   27512.0  15.8248
   27521.9  15.8403
   27531.9  15.8557
   27541.9  15.8711
   27551.9  15.8866
   27561.8  15.9021
   27571.8  15.9176
   27581.8  15.9331
   27591.8  15.9486
   27601.8  15.9641
   27611.8  15.9797
   27621.8  15.9953
   27631.8  16.0108
   27641.8  16.0264
   27651.8  16.0420
   27661.9  16.0577
   27671.9  16.0733
   27681.9  16.0890
   27691.9  16.1046
   27702.0  16.1203
   27712.0  16.1361
   27722.0  16.1518
   27732.1  16.1676
   27742.1  16.1833
   27752.2  16.1991
   27762.2  16.2149
   27772.3  16.2307
   27782.4  16.2465
   27792.4  16.2624
   27802.5  16.2782
   27812.6  16.2941
   27822.7  16.3100
   27832.7  16.3259
   27842.8  16.3418
   27852.9  16.3578
   27863.0  16.3737
   27873.1  16.3897
   27883.2  16.4057
   27893.3  16.4217
   27903.4  16.4377
   27913.5  16.4537
   27923.6  16.4698
   27933.7  16.4858
   27943.9  16.5019
   27954.0  16.5180
   27964.1  16.5341
   27974.2  16.5502
   27984.4  16.5663
   27994.5  16.5825
   28004.7  16.5987
   28014.8  16.6148
   28025.0  16.6310
   28035.1  16.6473
   28045.3  16.6635
   28055.4  16.6797
   28065.6  16.6960
   28075.8  16.7123
   28085.9  16.7286
   28096.1  16.7449
   28106.3  16.7612
   28116.5  16.7776
   28126.7  16.7939
   28136.8  16.8103
   28147.0  16.8267
   28157.2  16.8431
   28167.4  16.8596
   28177.6  16.8760
   28187.9  16.8925
   28198.1  16.9090
   28208.3  16.9254
   28218.5  16.9420
   28228.7  16.9585
   28239.0  16.9751
   28249.2  16.9916
   28259.4  17.0082
   28269.7  17.0248
   28279.9  17.0414
   28290.2  17.0580
   28300.4  17.0747
   28310.7  17.0913
   28320.9  17.1080
   28331.2  17.1247
   28341.4  17.1414
   28351.7  17.1581
   28362.0  17.1749
   28372.3  17.1916
   28382.5  17.2084
   28392.8  17.2252
   28403.1  17.2420
   28413.4  17.2588
   28423.7  17.2757
   28434.0  17.2925
   28444.3  17.3094
   28454.6  17.3263
   28464.9  17.3432
   28475.2  17.3601
   28485.5  17.3771
   28495.9  17.3940
   28506.2  17.4110
   28516.5  17.4280
   28526.8  17.4450
   28537.2  17.4620
   28547.5  17.4790
   28557.9  17.4961
   28568.2  17.5132
   28578.6  17.5303
   28588.9  17.5474
   28599.3  17.5645
   28609.6  17.5816
   28620.0  17.5988
   28630.4  17.6160
   28640.7  17.6332
   28651.1  17.6504
   28661.5  17.6677
   28671.9  17.6849
   28682.3  17.7022
   28692.7  17.7195
   28703.1  17.7368
   28713.5  17.7541
   28723.9  17.7714
   28734.3  17.7888
   28744.7  17.8062
   28755.1  17.8236
   28765.5  17.8410
   28775.9  17.8584
   28786.4  17.8759
   28796.8  17.8933
   28807.2  17.9108
   28817.7  17.9283
   28828.1  17.9458
   28838.5  17.9633
   28849.0  17.9808
   28859.4  17.9984
   28869.9  18.0160
   28880.4  18.0336
   28890.8  18.0512
   28901.3  18.0688
   28911.8  18.0865
   28922.2  18.1041
   28932.7  18.1218
   28943.2  18.1395
   28953.7  18.1572
   28964.2  18.1749
   28974.7  18.1927
   28985.2  18.2104
   28995.7  18.2282
   29006.2  18.2460
   29016.7  18.2638
   29027.2  18.2817
   29037.7  18.2995
   29048.2  18.3174
   29058.8  18.3353
   29069.3  18.3532
   29079.8  18.3712
   29090.4  18.3891
   29100.9  18.4071
   29111.4  18.4251
   29122.0  18.4431
   29132.5  18.4611
   29143.1  18.4791
   29153.6  18.4972
   29164.2  18.5153
   29174.8  18.5334
   29185.3  18.5515
   29195.9  18.5696
   29206.5  18.5878
   29217.1  18.6059
   29227.7  18.6241
   29238.3  18.6423
   29248.8  18.6605
   29259.4  18.6788
   29270.0  18.6970
   29280.7  18.7153
   29291.3  18.7336
   29301.9  18.7519
   29312.5  18.7702
   29323.1  18.7886
   29333.7  18.8069
   29344.4  18.8253
   29355.0  18.8437
   29365.6  18.8621
   29376.3  18.8806
   29386.9  18.8990
   29397.6  18.9175
   29408.2  18.9360
   29418.9  18.9545
   29429.5  18.9730
   29440.2  18.9916
   29450.9  19.0101
   29461.5  19.0287
   29472.2  19.0473
   29482.9  19.0659
   29493.6  19.0845
   29504.2  19.1032
   29514.9  19.1218
   29525.6  19.1405
   29536.3  19.1592
   29547.0  19.1780
   29557.7  19.1967
   29568.4  19.2155
   29579.2  19.2343
   29589.9  19.2531
   29600.6  19.2719
   29611.3  19.2908
   29622.0  19.3097
   29632.8  19.3285
   29643.5  19.3474
   29654.3  19.3663
   29665.0  19.3853
   29675.7  19.4042
   29686.5  19.4232
   29697.3  19.4422
   29708.0  19.4612
   29718.8  19.4803
   29729.5  19.4993
   29740.3  19.5184
   29751.1  19.5375
   29761.9  19.5566
   29772.7  19.5757
   29783.4  19.5949
   29794.2  19.6140
   29805.0  19.6332
   29815.8  19.6524
   29826.6  19.6716
   29837.4  19.6908
   29848.2  19.7101
   29859.1  19.7293
   29869.9  19.7486
   29880.7  19.7680
   29891.5  19.7873
   29902.4  19.8066
   29913.2  19.8260
   29924.0  19.8454
   29934.9  19.8648
   29945.7  19.8842
   29956.6  19.9037
   29967.4  19.9231
   29978.3  19.9426
   29989.1  19.9621
   30000.0  19.9816
