 B Density=2.34, Angle=90.deg
 Photon Energy (eV), Atten Length (microns)
   30.0000  3.784204E-02
   30.3089  3.842700E-02
   30.6210  3.900527E-02
   30.9363  3.959235E-02
   31.2548  4.018833E-02
   31.5766  4.079332E-02
   31.9018  4.140747E-02
   32.2302  4.203092E-02
   32.5621  4.266377E-02
   32.8974  4.330612E-02
   33.2361  4.395812E-02
   33.5783  4.461994E-02
   33.9241  4.529171E-02
   34.2734  4.597367E-02
   34.6263  4.666585E-02
   34.9828  4.737107E-02
   35.3430  4.811946E-02
   35.7069  4.888126E-02
   36.0746  4.965664E-02
   36.4460  5.044436E-02
   36.8213  5.124456E-02
   37.2004  5.205743E-02
   37.5835  5.288326E-02
   37.9705  5.372223E-02
   38.3614  5.457453E-02
   38.7564  5.544040E-02
   39.1555  5.632000E-02
   39.5586  5.721330E-02
   39.9660  5.813287E-02
   40.3775  5.907745E-02
   40.7932  6.005252E-02
   41.2133  6.104402E-02
   41.6376  6.205194E-02
   42.0663  6.307651E-02
   42.4995  6.411799E-02
   42.9371  6.517664E-02
   43.3792  6.625266E-02
   43.8258  6.734642E-02
   44.2771  6.845832E-02
   44.7330  6.959387E-02
   45.1936  7.075253E-02
   45.6589  7.195693E-02
   46.1291  7.318185E-02
   46.6041  7.442769E-02
   47.0839  7.569450E-02
   47.5687  7.698283E-02
   48.0585  7.829304E-02
   48.5534  7.962578E-02
   49.0533  8.098130E-02
   49.5584  8.236001E-02
   50.0687  8.379811E-02
   50.5842  8.528531E-02
   51.1050  8.682472E-02
   51.6312  8.839195E-02
   52.1629  8.998747E-02
   52.7000  9.161177E-02
   53.2426  9.326565E-02
   53.7908  9.494988E-02
   54.3447  9.666411E-02
   54.9043  9.840918E-02
   55.4696  0.100186
   56.0407  0.101994
   56.6178  0.103835
   57.2007  0.105708
   57.7897  0.107616
   58.3847  0.109559
   58.9859  0.111560
   59.5933  0.113614
   60.2069  0.115731
   60.8268  0.117904
   61.4531  0.120135
   62.0859  0.122446
   62.7251  0.124800
   63.3710  0.127200
   64.0235  0.129646
   64.6827  0.132138
   65.3487  0.134679
   66.0216  0.137269
   66.7014  0.139909
   67.3882  0.142599
   68.0821  0.145341
   68.7831  0.148150
   69.4913  0.151048
   70.2068  0.154025
   70.9297  0.157082
   71.6601  0.160260
   72.3979  0.163511
   73.1434  0.166835
   73.8965  0.170225
   74.6574  0.173684
   75.4261  0.177212
   76.2027  0.180813
   76.9874  0.184488
   77.7801  0.188239
   78.5809  0.192106
   79.3901  0.196065
   80.2075  0.200107
   81.0334  0.204278
   81.8677  0.208566
   82.7107  0.212986
   83.5623  0.217503
   84.4228  0.222117
   85.2920  0.226829
   86.1702  0.231640
   87.0575  0.236552
   87.9539  0.241585
   88.8595  0.246735
   89.7745  0.252015
   90.6988  0.257434
   91.6327  0.262989
   92.5762  0.268726
   93.5295  0.274589
   94.4925  0.280579
   95.4655  0.286698
   96.4484  0.292951
   97.4415  0.299338
   98.4448  0.305863
   99.4585  0.312606
   100.483  0.319716
   101.517  0.327195
   102.562  0.334934
   103.619  0.342812
   104.685  0.350884
   105.763  0.359153
   106.852  0.367458
   107.953  0.375769
   109.064  0.384022
   110.187  0.392156
   111.322  0.400378
   112.468  0.408685
   113.626  0.417335
   114.796  0.426341
   115.978  0.436082
   117.172  0.446163
   118.379  0.456554
   119.597  0.467184
   120.829  0.478063
   122.073  0.489195
   123.330  0.500589
   124.600  0.512247
   125.883  0.524174
   127.179  0.536382
   128.488  0.548875
   129.811  0.561660
   131.148  0.574754
   132.498  0.588180
   133.863  0.602153
   135.241  0.616507
   136.634  0.631254
   138.040  0.646358
   139.462  0.661822
   140.898  0.677654
   142.349  0.693863
   143.814  0.710459
   145.295  0.727456
   146.791  0.744265
   148.303  0.761125
   149.830  0.777982
   151.372  0.796320
   152.931  0.816040
   154.506  0.837428
   156.096  0.859777
   157.704  0.883273
   159.328  0.907410
   160.968  0.932205
   162.626  0.957675
   164.300  0.983842
   165.992  1.01073
   167.701  1.03835
   169.428  1.06606
   171.172  1.09398
   172.935  1.12096
   174.715  1.14765
   176.514  1.17375
   178.332  1.20038
   180.168  1.22773
   182.023  1.25600
   183.897  1.28656
   185.791  1.31843
   187.704  1.35108
   189.637  4.942393E-02
   191.589  5.051379E-02
   193.562  5.162734E-02
   195.555  5.275410E-02
   197.568  5.389314E-02
   199.603  5.503819E-02
   201.658  5.620581E-02
   203.734  5.739797E-02
   205.832  5.861527E-02
   207.952  5.985847E-02
   210.093  6.112843E-02
   212.256  6.250378E-02
   214.441  6.395499E-02
   216.650  6.546517E-02
   218.880  6.702230E-02
   221.134  6.862715E-02
   223.411  7.027021E-02
   225.711  7.195262E-02
   228.035  7.367537E-02
   230.383  7.543961E-02
   232.756  7.724606E-02
   235.152  7.909552E-02
   237.573  8.098918E-02
   240.020  8.292811E-02
   242.491  8.491307E-02
   244.988  8.694592E-02
   247.510  8.902775E-02
   250.059  9.115940E-02
   252.634  9.334198E-02
   255.235  9.557652E-02
   257.863  9.786520E-02
   260.518  0.100209
   263.201  0.102609
   265.911  0.105066
   268.649  0.107581
   271.415  0.110157
   274.209  0.112823
   277.033  0.115575
   279.885  0.118457
   282.767  0.121430
   285.679  0.124501
   288.620  0.127656
   291.592  0.130891
   294.594  0.134208
   297.628  0.137609
   300.692  0.141097
   303.788  0.144673
   306.916  0.148340
   310.077  0.152100
   313.269  0.155954
   316.495  0.159906
   319.754  0.163959
   323.046  0.168115
   326.372  0.172375
   329.733  0.176742
   333.128  0.181220
   336.558  0.185812
   340.024  0.190523
   343.525  0.195350
   347.062  0.200299
   350.635  0.205373
   354.246  0.210577
   357.893  0.215914
   361.578  0.221386
   365.301  0.226997
   369.063  0.232750
   372.863  0.238649
   376.702  0.244697
   380.581  0.250898
   384.499  0.257244
   388.459  0.263741
   392.458  0.270371
   396.499  0.277333
   400.582  0.284604
   404.707  0.292188
   408.874  0.299979
   413.084  0.307985
   417.337  0.316198
   421.634  0.324629
   425.976  0.333283
   430.362  0.342172
   434.793  0.351299
   439.270  0.360669
   443.793  0.370303
   448.362  0.380208
   452.979  0.390503
   457.643  0.401124
   462.355  0.412090
   467.116  0.423407
   471.926  0.435037
   476.785  0.446982
   481.694  0.459256
   486.654  0.471868
   491.665  0.484825
   496.727  0.498139
   501.842  0.511819
   507.009  0.525874
   512.230  0.540330
   517.504  0.555200
   522.832  0.570576
   528.216  0.586462
   533.655  0.602924
   539.150  0.619938
   544.701  0.637455
   550.310  0.655469
   555.976  0.673656
   561.701  0.692162
   567.484  0.711010
   573.327  0.730607
   579.231  0.750946
   585.195  0.771986
   591.220  0.793657
   597.308  0.815991
   603.458  0.838955
   609.672  0.862565
   615.949  0.886837
   622.291  0.911830
   628.699  0.937645
   635.172  0.964801
   641.712  0.993381
   648.320  1.02329
   654.995  1.05487
   661.740  1.08742
   668.553  1.12097
   675.437  1.15350
   682.392  1.18610
   689.418  1.21831
   696.517  1.25102
   703.689  1.28480
   710.934  1.32095
   718.254  1.35891
   725.650  1.39846
   733.122  1.43918
   740.670  1.48108
   748.297  1.52420
   756.002  1.56857
   763.786  1.61426
   771.650  1.66133
   779.596  1.70999
   787.623  1.76017
   795.733  1.81200
   803.926  1.86538
   812.204  1.92033
   820.567  1.97689
   829.016  2.03513
   837.552  2.09507
   846.176  2.15717
   854.888  2.22131
   863.691  2.28766
   872.584  2.35636
   881.569  2.42723
   890.646  2.50027
   899.816  2.57549
   909.081  2.65297
   918.442  2.73275
   927.899  2.81432
   937.453  2.89782
   947.106  2.98354
   956.858  3.07170
   966.710  3.16234
   976.664  3.25563
   986.720  3.35172
   996.880  3.45080
   1007.14  3.55297
   1017.51  3.65865
   1027.99  3.76975
   1038.58  3.88442
   1049.27  4.00273
   1060.07  4.12502
   1070.99  4.25102
   1082.02  4.38084
   1093.16  4.51462
   1104.41  4.65251
   1115.79  4.79467
   1127.27  4.94113
   1138.88  5.09206
   1150.61  5.24758
   1162.46  5.40789
   1174.42  5.57313
   1186.52  5.74339
   1198.73  5.91884
   1211.08  6.09964
   1223.55  6.28595
   1236.15  6.47805
   1248.87  6.67622
   1261.73  6.88064
   1274.72  7.09146
   1287.85  7.30909
   1301.11  7.53343
   1314.51  7.76467
   1328.04  8.00297
   1341.72  8.24861
   1355.53  8.50180
   1369.49  8.76273
   1383.59  9.03165
   1397.84  9.30876
   1412.23  9.59435
   1426.77  9.88875
   1441.46  10.1923
   1456.30  10.5055
   1471.30  10.8284
   1486.45  11.1618
   1501.75  11.5074
   1517.22  11.8651
   1532.84  12.2342
   1548.62  12.6149
   1564.57  13.0073
   1580.68  13.4120
   1596.95  13.8293
   1613.40  14.2596
   1630.01  14.7034
   1646.79  15.1610
   1663.75  15.6328
   1680.88  16.1193
   1698.19  16.6209
   1715.67  17.1381
   1733.34  17.6730
   1751.18  18.2263
   1769.22  18.7979
   1787.43  19.3878
   1805.84  19.9968
   1824.43  20.6252
   1843.22  21.2734
   1862.20  21.9421
   1881.37  22.6318
   1900.74  23.3431
   1920.31  24.0764
   1940.09  24.8327
   1960.06  25.6127
   1980.24  26.4173
   2000.63  27.2411
   2021.23  28.0801
   2042.05  28.9626
   2063.07  29.8772
   2084.31  30.8213
   2105.78  31.7957
   2127.46  32.8013
   2149.36  33.8388
   2171.49  34.9109
   2193.85  36.0184
   2216.44  37.1601
   2239.26  38.3385
   2262.32  39.5551
   2285.62  40.8125
   2309.15  42.1102
   2332.93  43.4489
   2356.95  44.8314
   2381.22  46.2586
   2405.73  47.7327
   2430.51  49.2542
   2455.53  50.8246
   2480.81  52.4466
   2506.36  54.1211
   2532.17  55.8500
   2558.24  57.6357
   2584.58  59.4790
   2611.19  61.3824
   2638.08  63.3480
   2665.24  65.3773
   2692.68  67.4730
   2720.41  69.6368
   2748.42  71.8707
   2776.72  74.1789
   2805.31  76.5615
   2834.20  79.0209
   2863.38  81.5623
   2892.86  84.1864
   2922.65  86.8965
   2952.74  89.6960
   2983.15  92.5864
   3013.86  95.5712
   3044.89  98.6547
   3076.25  101.839
   3107.92  105.128
   3139.92  108.525
   3172.25  112.032
   3204.92  115.657
   3237.92  119.399
   3271.26  123.264
   3304.94  127.257
   3338.97  131.382
   3373.35  135.641
   3408.08  140.040
   3443.17  144.582
   3478.63  149.277
   3514.45  154.125
   3550.63  159.132
   3587.19  164.307
   3624.13  169.651
   3661.44  175.170
   3699.14  180.871
   3737.23  186.761
   3775.71  192.847
   3814.59  199.133
   3853.87  205.624
   3893.55  212.329
   3933.64  219.256
   3974.14  226.410
   4015.06  233.754
   4056.40  241.362
   4098.17  249.249
   4140.37  257.389
   4183.00  265.795
   4226.07  274.476
   4269.59  283.441
   4313.55  292.700
   4357.96  302.263
   4402.83  312.139
   4448.17  322.336
   4493.97  332.864
   4540.24  343.737
   4586.99  354.965
   4634.22  366.564
   4681.94  378.540
   4730.15  390.910
   4778.85  403.678
   4828.06  416.862
   4877.77  430.481
   4928.00  444.543
   4978.74  459.060
   5030.00  474.054
   5036.95  476.111
   5043.91  478.178
   5050.87  480.252
   5057.85  482.336
   5064.83  484.431
   5071.83  486.534
   5078.84  488.646
   5085.85  490.767
   5092.88  492.897
   5099.91  495.037
   5106.96  497.185
   5114.01  499.343
   5121.07  501.510
   5128.15  503.686
   5135.23  505.872
   5142.32  508.067
   5149.43  510.272
   5156.54  512.487
   5163.66  514.710
   5170.79  516.945
   5177.94  519.187
   5185.09  521.439
   5192.25  523.702
   5199.42  525.974
   5206.60  528.255
   5213.80  530.547
   5221.00  532.848
   5228.21  535.160
   5235.43  537.484
   5242.66  539.816
   5249.90  542.159
   5257.16  544.512
   5264.42  546.874
   5271.69  549.247
   5278.97  551.630
   5286.26  554.023
   5293.56  556.427
   5300.88  558.840
   5308.20  561.265
   5315.53  563.699
   5322.87  566.144
   5330.23  568.601
   5337.59  571.067
   5344.96  573.543
   5352.34  576.031
   5359.74  578.529
   5367.14  581.038
   5374.55  583.557
   5381.98  586.086
   5389.41  588.628
   5396.85  591.181
   5404.31  593.745
   5411.77  596.322
   5419.25  598.907
   5426.73  601.505
   5434.23  604.114
   5441.74  606.733
   5449.25  609.364
   5456.78  612.005
   5464.32  614.658
   5471.87  617.323
   5479.42  619.999
   5486.99  622.687
   5494.57  625.388
   5502.16  628.098
   5509.76  630.822
   5517.37  633.556
   5524.99  636.301
   5532.62  639.060
   5540.27  641.829
   5547.92  644.609
   5555.58  647.403
   5563.26  650.207
   5570.94  653.026
   5578.63  655.856
   5586.34  658.698
   5594.06  661.554
   5601.78  664.420
   5609.52  667.298
   5617.27  670.190
   5625.03  673.093
   5632.80  676.010
   5640.58  678.938
   5648.37  681.877
   5656.17  684.832
   5663.98  687.799
   5671.81  690.779
   5679.64  693.773
   5687.49  696.778
   5695.34  699.797
   5703.21  702.828
   5711.09  705.872
   5718.98  708.930
   5726.88  711.999
   5734.79  715.082
   5742.71  718.179
   5750.64  721.288
   5758.58  724.412
   5766.54  727.550
   5774.50  730.700
   5782.48  733.864
   5790.47  737.041
   5798.46  740.231
   5806.47  743.436
   5814.49  746.653
   5822.52  749.883
   5830.57  753.129
   5838.62  756.387
   5846.69  759.662
   5854.76  762.949
   5862.85  766.251
   5870.95  769.568
   5879.06  772.897
   5887.18  776.241
   5895.31  779.600
   5903.45  782.972
   5911.61  786.359
   5919.77  789.759
   5927.95  793.174
   5936.14  796.605
   5944.34  800.050
   5952.55  803.510
   5960.77  806.987
   5969.00  810.476
   5977.25  813.980
   5985.50  817.500
   5993.77  821.034
   6002.05  824.584
   6010.34  828.149
   6018.64  831.729
   6026.96  835.326
   6035.28  838.938
   6043.62  842.567
   6051.97  846.213
   6060.32  849.872
   6068.70  853.548
   6077.08  857.239
   6085.47  860.944
   6093.88  864.667
   6102.29  868.404
   6110.72  872.157
   6119.16  875.927
   6127.62  879.711
   6136.08  883.515
   6144.56  887.333
   6153.04  891.168
   6161.54  895.020
   6170.05  898.887
   6178.58  902.769
   6187.11  906.670
   6195.66  910.585
   6204.21  914.519
   6212.78  918.467
   6221.37  922.432
   6229.96  926.417
   6238.56  930.418
   6247.18  934.436
   6255.81  938.473
   6264.45  942.524
   6273.10  946.595
   6281.77  950.681
   6290.45  954.784
   6299.14  958.906
   6307.84  963.043
   6316.55  967.198
   6325.27  971.371
   6334.01  975.563
   6342.76  979.775
   6351.52  984.002
   6360.29  988.247
   6369.08  992.511
   6377.88  996.792
   6386.69  1001.09
   6395.51  1005.41
   6404.34  1009.74
   6413.19  1014.09
   6422.05  1018.47
   6430.92  1022.86
   6439.80  1027.27
   6448.70  1031.70
   6457.60  1036.15
   6466.52  1040.62
   6475.45  1045.10
   6484.40  1049.60
   6493.36  1054.13
   6502.32  1058.67
   6511.31  1063.23
   6520.30  1067.81
   6529.31  1072.41
   6538.33  1077.03
   6547.36  1081.67
   6556.40  1086.33
   6565.46  1091.01
   6574.52  1095.70
   6583.61  1100.42
   6592.70  1105.16
   6601.81  1109.91
   6610.92  1114.69
   6620.06  1119.48
   6629.20  1124.30
   6638.36  1129.14
   6647.53  1133.99
   6656.71  1138.87
   6665.90  1143.77
   6675.11  1148.69
   6684.33  1153.63
   6693.56  1158.59
   6702.81  1163.57
   6712.07  1168.58
   6721.34  1173.60
   6730.62  1178.64
   6739.92  1183.70
   6749.23  1188.79
   6758.55  1193.90
   6767.89  1199.03
   6777.24  1204.18
   6786.60  1209.36
   6795.97  1214.55
   6805.36  1219.77
   6814.76  1225.01
   6824.17  1230.27
   6833.60  1235.55
   6843.04  1240.85
   6852.49  1246.18
   6861.95  1251.53
   6871.43  1256.90
   6880.92  1262.30
   6890.43  1267.72
   6899.95  1273.16
   6909.48  1278.63
   6919.02  1284.11
   6928.58  1289.62
   6938.15  1295.15
   6947.73  1300.71
   6957.33  1306.28
   6966.94  1311.88
   6976.56  1317.51
   6986.20  1323.15
   6995.85  1328.82
   7005.51  1334.52
   7015.19  1340.23
   7024.88  1345.97
   7034.58  1351.74
   7044.30  1357.52
   7054.03  1363.33
   7063.77  1369.17
   7073.53  1375.03
   7083.30  1380.91
   7093.08  1386.82
   7102.88  1392.76
   7112.69  1398.72
   7122.52  1404.70
   7132.35  1410.71
   7142.21  1416.74
   7152.07  1422.80
   7161.95  1428.88
   7171.84  1434.99
   7181.75  1441.12
   7191.67  1447.28
   7201.60  1453.47
   7211.55  1459.68
   7221.51  1465.91
   7231.49  1472.18
   7241.47  1478.46
   7251.48  1484.78
   7261.49  1491.11
   7271.52  1497.48
   7281.57  1503.87
   7291.62  1510.28
   7301.70  1516.72
   7311.78  1523.19
   7321.88  1529.69
   7332.00  1536.22
   7342.12  1542.77
   7352.26  1549.34
   7362.42  1555.95
   7372.59  1562.58
   7382.77  1569.24
   7392.97  1575.93
   7403.18  1582.64
   7413.41  1589.37
   7423.65  1596.14
   7433.90  1602.94
   7444.17  1609.77
   7454.45  1616.62
   7464.75  1623.51
   7475.06  1630.42
   7485.39  1637.36
   7495.72  1644.32
   7506.08  1651.32
   7516.45  1658.34
   7526.83  1665.40
   7537.23  1672.47
   7547.64  1679.58
   7558.06  1686.72
   7568.50  1693.88
   7578.96  1701.08
   7589.42  1708.30
   7599.91  1715.55
   7610.40  1722.84
   7620.92  1730.14
   7631.44  1737.48
   7641.98  1744.85
   7652.54  1752.25
   7663.11  1759.67
   7673.70  1767.13
   7684.29  1774.62
   7694.91  1782.15
   7705.54  1789.70
   7716.18  1797.28
   7726.84  1804.90
   7737.51  1812.54
   7748.20  1820.21
   7758.90  1827.91
   7769.62  1835.65
   7780.35  1843.41
   7791.10  1851.21
   7801.86  1859.03
   7812.64  1866.90
   7823.43  1874.79
   7834.23  1882.71
   7845.06  1890.67
   7855.89  1898.66
   7866.74  1906.68
   7877.61  1914.73
   7888.49  1922.81
   7899.39  1930.92
   7910.30  1939.07
   7921.22  1947.24
   7932.17  1955.46
   7943.12  1963.71
   7954.09  1971.99
   7965.08  1980.31
   7976.08  1988.65
   7987.10  1997.03
   7998.13  2005.44
   8009.18  2013.89
   8020.24  2022.38
   8031.32  2030.89
   8042.41  2039.44
   8053.52  2048.04
   8064.65  2056.67
   8075.79  2065.33
   8086.94  2074.03
   8098.11  2082.76
   8109.30  2091.53
   8120.50  2100.33
   8131.71  2109.16
   8142.95  2118.03
   8154.19  2126.93
   8165.46  2135.87
   8176.74  2144.84
   8188.03  2153.85
   8199.34  2162.90
   8210.67  2171.97
   8222.01  2181.08
   8233.36  2190.24
   8244.74  2199.42
   8256.13  2208.64
   8267.53  2217.89
   8278.95  2227.18
   8290.38  2236.51
   8301.83  2245.87
   8313.30  2255.27
   8324.79  2264.72
   8336.28  2274.20
   8347.80  2283.71
   8359.33  2293.27
   8370.88  2302.85
   8382.44  2312.48
   8394.02  2322.14
   8405.61  2331.84
   8417.22  2341.58
   8428.85  2351.35
   8440.49  2361.16
   8452.15  2371.02
   8463.82  2380.92
   8475.51  2390.86
   8487.22  2400.83
   8498.95  2410.85
   8510.68  2420.90
   8522.44  2430.99
   8534.21  2441.11
   8546.00  2451.28
   8557.80  2461.48
   8569.63  2471.73
   8581.46  2482.01
   8593.32  2492.33
   8605.19  2502.69
   8617.07  2513.09
   8628.97  2523.52
   8640.89  2534.00
   8652.83  2544.51
   8664.78  2555.07
   8676.75  2565.66
   8688.73  2576.29
   8700.74  2586.97
   8712.75  2597.68
   8724.79  2608.44
   8736.84  2619.25
   8748.91  2630.09
   8760.99  2640.99
   8773.09  2651.91
   8785.21  2662.88
   8797.35  2673.89
   8809.50  2684.94
   8821.67  2696.03
   8833.85  2707.17
   8846.05  2718.34
   8858.27  2729.55
   8870.51  2740.82
   8882.76  2752.13
   8895.03  2763.49
   8907.32  2774.88
   8919.62  2786.31
   8931.94  2797.80
   8944.28  2809.32
   8956.63  2820.88
   8969.00  2832.49
   8981.39  2844.14
   8993.80  2855.83
   9006.22  2867.56
   9018.66  2879.35
   9031.12  2891.18
   9043.59  2903.06
   9056.08  2914.97
   9068.59  2926.94
   9081.12  2938.94
   9093.66  2950.99
   9106.22  2963.08
   9118.80  2975.21
   9131.40  2987.40
   9144.01  2999.62
   9156.64  3011.88
   9169.29  3024.20
   9181.95  3036.56
   9194.64  3048.97
   9207.34  3061.42
   9220.05  3073.91
   9232.79  3086.46
   9245.54  3099.04
   9258.31  3111.66
   9271.10  3124.34
   9283.91  3137.06
   9296.73  3149.82
   9309.57  3162.66
   9322.43  3175.54
   9335.31  3188.47
   9348.20  3201.44
   9361.12  3214.46
   9374.05  3227.53
   9386.99  3240.63
   9399.96  3253.79
   9412.94  3267.00
   9425.95  3280.25
   9438.97  3293.55
   9452.00  3306.89
   9465.06  3320.28
   9478.13  3333.72
   9491.23  3347.21
   9504.34  3360.74
   9517.46  3374.33
   9530.61  3387.95
   9543.77  3401.63
   9556.96  3415.35
   9570.16  3429.12
   9583.38  3442.94
   9596.61  3456.81
   9609.87  3470.73
   9623.14  3484.73
   9636.44  3498.76
   9649.75  3512.84
   9663.08  3526.98
   9676.42  3541.16
   9689.79  3555.39
   9703.17  3569.67
   9716.58  3584.00
   9730.00  3598.38
   9743.44  3612.80
   9756.89  3627.27
   9770.37  3641.79
   9783.87  3656.35
   9797.38  3670.96
   9810.91  3685.62
   9824.47  3700.33
   9838.04  3715.09
   9851.63  3729.90
   9865.23  3744.75
   9878.86  3759.67
   9892.50  3774.62
   9906.17  3789.63
   9919.85  3804.70
   9933.55  3819.84
   9947.28  3835.04
   9961.02  3850.28
   9974.77  3865.57
   9988.55  3880.92
   10002.3  3896.32
   10016.2  3911.82
   10030.0  3927.36
   10038.1  3936.48
   10046.2  3945.63
   10054.4  3954.80
   10062.5  3963.98
   10070.7  3973.19
   10078.8  3982.41
   10087.0  3991.65
   10095.1  4000.92
   10103.3  4010.20
   10111.5  4019.50
   10119.6  4028.81
   10127.8  4038.15
   10136.0  4047.51
   10144.2  4056.88
   10152.4  4066.26
   10160.7  4075.68
   10168.9  4085.10
   10177.1  4094.55
   10185.3  4104.01
   10193.6  4113.48
   10201.8  4122.99
   10210.1  4132.50
   10218.4  4142.04
   10226.6  4151.59
   10234.9  4161.17
   10243.2  4170.76
   10251.5  4180.37
   10259.8  4190.01
   10268.1  4199.67
   10276.4  4209.35
   10284.7  4219.04
   10293.0  4228.75
   10301.4  4238.48
   10309.7  4248.23
   10318.0  4257.99
   10326.4  4267.77
   10334.7  4277.57
   10343.1  4287.40
   10351.5  4297.24
   10359.9  4307.10
   10368.2  4316.97
   10376.6  4326.88
   10385.0  4336.79
   10393.4  4346.72
   10401.8  4356.67
   10410.3  4366.65
   10418.7  4376.65
   10427.1  4386.66
   10435.6  4396.69
   10444.0  4406.75
   10452.4  4416.83
   10460.9  4426.92
   10469.4  4437.02
   10477.8  4447.15
   10486.3  4457.30
   10494.8  4467.47
   10503.3  4477.65
   10511.8  4487.85
   10520.3  4498.08
   10528.8  4508.32
   10537.3  4518.58
   10545.9  4528.86
   10554.4  4539.15
   10562.9  4549.48
   10571.5  4559.81
   10580.1  4570.17
   10588.6  4580.55
   10597.2  4590.96
   10605.8  4601.38
   10614.3  4611.82
   10622.9  4622.28
   10631.5  4632.76
   10640.1  4643.26
   10648.7  4653.78
   10657.4  4664.31
   10666.0  4674.87
   10674.6  4685.45
   10683.3  4696.04
   10691.9  4706.65
   10700.6  4717.28
   10709.2  4727.94
   10717.9  4738.60
   10726.6  4749.29
   10735.2  4760.00
   10743.9  4770.72
   10752.6  4781.49
   10761.3  4792.26
   10770.0  4803.06
   10778.7  4813.87
   10787.5  4824.71
   10796.2  4835.56
   10804.9  4846.43
   10813.7  4857.32
   10822.4  4868.24
   10831.2  4879.17
   10840.0  4890.12
   10848.7  4901.09
   10857.5  4912.07
   10866.3  4923.09
   10875.1  4934.11
   10883.9  4945.16
   10892.7  4956.22
   10901.5  4967.31
   10910.3  4978.42
   10919.2  4989.54
   10928.0  5000.70
   10936.8  5011.87
   10945.7  5023.07
   10954.5  5034.28
   10963.4  5045.51
   10972.3  5056.76
   10981.2  5068.04
   10990.0  5079.33
   10998.9  5090.64
   11007.8  5101.97
   11016.8  5113.32
   11025.7  5124.69
   11034.6  5136.08
   11043.5  5147.48
   11052.5  5158.92
   11061.4  5170.36
   11070.4  5181.83
   11079.3  5193.31
   11088.3  5204.82
   11097.3  5216.35
   11106.2  5227.91
   11115.2  5239.49
   11124.2  5251.09
   11133.2  5262.72
   11142.2  5274.35
   11151.2  5286.01
   11160.3  5297.68
   11169.3  5309.39
   11178.3  5321.11
   11187.4  5332.84
   11196.4  5344.60
   11205.5  5356.37
   11214.6  5368.17
   11223.6  5379.99
   11232.7  5391.82
   11241.8  5403.67
   11250.9  5415.56
   11260.0  5427.45
   11269.1  5439.36
   11278.3  5451.30
   11287.4  5463.26
   11296.5  5475.25
   11305.7  5487.26
   11314.8  5499.28
   11324.0  5511.32
   11333.1  5523.39
   11342.3  5535.47
   11351.5  5547.58
   11360.7  5559.70
   11369.9  5571.85
   11379.1  5584.01
   11388.3  5596.19
   11397.5  5608.39
   11406.7  5620.61
   11415.9  5632.86
   11425.2  5645.12
   11434.4  5657.40
   11443.7  5669.70
   11452.9  5682.03
   11462.2  5694.37
   11471.5  5706.74
   11480.8  5719.13
   11490.1  5731.54
   11499.4  5743.97
   11508.7  5756.42
   11518.0  5768.89
   11527.3  5781.37
   11536.6  5793.89
   11546.0  5806.41
   11555.3  5818.96
   11564.7  5831.53
   11574.0  5844.12
   11583.4  5856.73
   11592.8  5869.35
   11602.1  5882.00
   11611.5  5894.67
   11620.9  5907.36
   11630.3  5920.06
   11639.7  5932.78
   11649.2  5945.54
   11658.6  5958.33
   11668.0  5971.12
   11677.5  5983.94
   11686.9  5996.78
   11696.4  6009.65
   11705.8  6022.52
   11715.3  6035.42
   11724.8  6048.33
   11734.3  6061.28
   11743.8  6074.24
   11753.3  6087.21
   11762.8  6100.21
   11772.3  6113.22
   11781.8  6126.27
   11791.4  6139.32
   11800.9  6152.40
   11810.5  6165.49
   11820.0  6178.61
   11829.6  6191.74
   11839.2  6204.91
   11848.7  6218.10
   11858.3  6231.31
   11867.9  6244.54
   11877.5  6257.78
   11887.1  6271.05
   11896.8  6284.33
   11906.4  6297.65
   11916.0  6310.98
   11925.7  6324.32
   11935.3  6337.68
   11945.0  6351.07
   11954.6  6364.48
   11964.3  6377.90
   11974.0  6391.34
   11983.7  6404.81
   11993.4  6418.29
   12003.1  6431.79
   12012.8  6445.31
   12022.5  6458.85
   12032.3  6472.43
   12042.0  6486.02
   12051.7  6499.63
   12061.5  6513.25
   12071.3  6526.91
   12081.0  6540.58
   12090.8  6554.26
   12100.6  6567.96
   12110.4  6581.70
   12120.2  6595.44
   12130.0  6609.20
   12139.8  6622.98
   12149.6  6636.78
   12159.5  6650.62
   12169.3  6664.45
   12179.1  6678.31
   12189.0  6692.19
   12198.9  6706.10
   12208.7  6720.02
   12218.6  6733.96
   12228.5  6747.94
   12238.4  6761.95
   12248.3  6775.96
   12258.2  6790.00
   12268.1  6804.05
   12278.1  6818.13
   12288.0  6832.23
   12297.9  6846.34
   12307.9  6860.48
   12317.9  6874.63
   12327.8  6888.81
   12337.8  6903.00
   12347.8  6917.21
   12357.8  6931.43
   12367.8  6945.68
   12377.8  6959.96
   12387.8  6974.24
   12397.8  6988.54
   12407.9  7002.87
   12417.9  7017.22
   12428.0  7031.59
   12438.0  7045.98
   12448.1  7060.38
   12458.2  7074.82
   12468.2  7089.27
   12478.3  7103.73
   12488.4  7118.21
   12498.5  7132.71
   12508.6  7147.24
   12518.8  7161.78
   12528.9  7176.34
   12539.0  7190.91
   12549.2  7205.52
   12559.3  7220.13
   12569.5  7234.76
   12579.7  7249.41
   12589.9  7264.09
   12600.0  7278.78
   12610.2  7293.48
   12620.4  7308.22
   12630.7  7322.98
   12640.9  7337.77
   12651.1  7352.57
   12661.3  7367.38
   12671.6  7382.21
   12681.8  7397.08
   12692.1  7411.95
   12702.4  7426.84
   12712.7  7441.74
   12723.0  7456.68
   12733.2  7471.63
   12743.6  7486.59
   12753.9  7501.57
   12764.2  7516.57
   12774.5  7531.60
   12784.9  7546.63
   12795.2  7561.68
   12805.6  7576.75
   12815.9  7591.85
   12826.3  7606.97
   12836.7  7622.11
   12847.1  7637.26
   12857.5  7652.45
   12867.9  7667.64
   12878.3  7682.85
   12888.7  7698.07
   12899.1  7713.32
   12909.6  7728.59
   12920.0  7743.87
   12930.5  7759.17
   12940.9  7774.49
   12951.4  7789.83
   12961.9  7805.18
   12972.4  7820.55
   12982.9  7835.94
   12993.4  7851.34
   13003.9  7866.77
   13014.4  7882.21
   13024.9  7897.67
   13035.5  7913.16
   13046.0  7928.68
   13056.6  7944.21
   13067.2  7959.76
   13077.7  7975.32
   13088.3  7990.91
   13098.9  8006.51
   13109.5  8022.12
   13120.1  8037.75
   13130.7  8053.40
   13141.4  8069.08
   13152.0  8084.76
   13162.6  8100.46
   13173.3  8116.18
   13184.0  8131.93
   13194.6  8147.68
   13205.3  8163.44
   13216.0  8179.23
   13226.7  8195.04
   13237.4  8210.86
   13248.1  8226.71
   13258.8  8242.57
   13269.6  8258.46
   13280.3  8274.36
   13291.0  8290.27
   13301.8  8306.20
   13312.6  8322.14
   13323.3  8338.12
   13334.1  8354.10
   13344.9  8370.09
   13355.7  8386.10
   13366.5  8402.14
   13377.3  8418.19
   13388.2  8434.25
   13399.0  8450.32
   13409.8  8466.41
   13420.7  8482.53
   13431.5  8498.66
   13442.4  8514.80
   13453.3  8530.96
   13464.2  8547.17
   13475.1  8563.37
   13486.0  8579.59
   13496.9  8595.83
   13507.8  8612.10
   13518.8  8628.37
   13529.7  8644.66
   13540.6  8660.96
   13551.6  8677.29
   13562.6  8693.62
   13573.5  8709.97
   13584.5  8726.33
   13595.5  8742.71
   13606.5  8759.12
   13617.5  8775.53
   13628.6  8791.95
   13639.6  8808.39
   13650.6  8824.86
   13661.7  8841.33
   13672.7  8857.82
   13683.8  8874.33
   13694.9  8890.86
   13705.9  8907.40
   13717.0  8923.96
   13728.1  8940.53
   13739.2  8957.11
   13750.4  8973.72
   13761.5  8990.33
   13772.6  9006.96
   13783.8  9023.60
   13794.9  9040.27
   13806.1  9056.94
   13817.3  9073.62
   13828.4  9090.32
   13839.6  9107.03
   13850.8  9123.77
   13862.0  9140.52
   13873.3  9157.27
   13884.5  9174.04
   13895.7  9190.85
   13907.0  9207.67
   13918.2  9224.50
   13929.5  9241.34
   13940.8  9258.22
   13952.0  9275.09
   13963.3  9291.97
   13974.6  9308.88
   13985.9  9325.79
   13997.3  9342.73
   14008.6  9359.67
   14019.9  9376.62
   14031.3  9393.59
   14042.6  9410.58
   14054.0  9427.58
   14065.4  9444.58
   14076.7  9461.60
   14088.1  9478.65
   14099.5  9495.69
   14111.0  9512.75
   14122.4  9529.83
   14133.8  9546.93
   14145.2  9564.06
   14156.7  9581.18
   14168.1  9598.32
   14179.6  9615.46
   14191.1  9632.64
   14202.6  9649.81
   14214.1  9667.00
   14225.6  9684.20
   14237.1  9701.42
   14248.6  9718.64
   14260.1  9735.88
   14271.7  9753.13
   14283.2  9770.39
   14294.8  9787.67
   14306.3  9804.95
   14317.9  9822.25
   14329.5  9839.55
   14341.1  9856.89
   14352.7  9874.23
   14364.3  9891.59
   14376.0  9908.96
   14387.6  9926.34
   14399.2  9943.75
   14410.9  9961.15
   14422.5  9978.57
   14434.2  9995.99
   14445.9  10013.4
   14457.6  10030.9
   14469.3  10048.4
   14481.0  10065.8
   14492.7  10083.3
   14504.4  10100.8
   14516.2  10118.3
   14527.9  10135.8
   14539.7  10153.4
   14551.5  10170.9
   14563.2  10188.5
   14575.0  10206.0
   14586.8  10223.6
   14598.6  10241.2
   14610.4  10258.8
   14622.3  10276.4
   14634.1  10294.0
   14645.9  10311.6
   14657.8  10329.3
   14669.6  10346.9
   14681.5  10364.6
   14693.4  10382.2
   14705.3  10399.9
   14717.2  10417.6
   14729.1  10435.3
   14741.0  10453.0
   14752.9  10470.7
   14764.9  10488.4
   14776.8  10506.2
   14788.8  10523.9
   14800.8  10541.7
   14812.7  10559.4
   14824.7  10577.2
   14836.7  10595.0
   14848.7  10612.8
   14860.7  10630.6
   14872.8  10648.5
   14884.8  10666.3
   14896.9  10684.1
   14908.9  10702.0
   14921.0  10719.8
   14933.0  10737.7
   14945.1  10755.6
   14957.2  10773.5
   14969.3  10791.4
   14981.4  10809.2
   14993.6  10827.1
   15005.7  10845.2
   15017.8  10863.4
   15030.0  10881.7
   15038.6  10894.6
   15047.3  10907.6
   15055.9  10920.6
   15064.6  10933.6
   15073.2  10946.5
   15081.9  10959.5
   15090.6  10972.5
   15099.2  10985.5
   15107.9  10998.5
   15116.6  11011.6
   15125.3  11024.6
   15134.0  11037.6
   15142.6  11050.6
   15151.3  11063.6
   15160.0  11076.7
   15168.8  11089.7
   15177.5  11102.8
   15186.2  11115.8
   15194.9  11128.9
   15203.6  11141.9
   15212.4  11155.0
   15221.1  11168.0
   15229.9  11181.1
   15238.6  11194.2
   15247.4  11207.3
   15256.1  11220.3
   15264.9  11233.4
   15273.7  11246.5
   15282.4  11259.6
   15291.2  11272.7
   15300.0  11285.8
   15308.8  11298.9
   15317.6  11312.1
   15326.4  11325.2
   15335.2  11338.3
   15344.0  11351.5
   15352.8  11364.6
   15361.6  11377.7
   15370.5  11390.9
   15379.3  11404.0
   15388.1  11417.2
   15397.0  11430.3
   15405.8  11443.5
   15414.7  11456.7
   15423.5  11469.8
   15432.4  11483.0
   15441.3  11496.2
   15450.1  11509.4
   15459.0  11522.6
   15467.9  11535.7
   15476.8  11548.9
   15485.7  11562.1
   15494.6  11575.3
   15503.5  11588.5
   15512.4  11601.7
   15521.3  11614.9
   15530.2  11628.1
   15539.1  11641.4
   15548.1  11654.6
   15557.0  11667.8
   15565.9  11681.1
   15574.9  11694.3
   15583.8  11707.5
   15592.8  11720.8
   15601.7  11734.0
   15610.7  11747.3
   15619.7  11760.5
   15628.6  11773.8
   15637.6  11787.1
   15646.6  11800.3
   15655.6  11813.6
   15664.6  11826.9
   15673.6  11840.1
   15682.6  11853.4
   15691.6  11866.7
   15700.6  11880.0
   15709.6  11893.2
   15718.7  11906.5
   15727.7  11919.8
   15736.7  11933.1
   15745.8  11946.4
   15754.8  11959.7
   15763.9  11973.0
   15772.9  11986.3
   15782.0  11999.6
   15791.1  12013.0
   15800.1  12026.3
   15809.2  12039.6
   15818.3  12052.9
   15827.4  12066.2
   15836.5  12079.6
   15845.6  12092.9
   15854.7  12106.2
   15863.8  12119.6
   15872.9  12132.9
   15882.0  12146.2
   15891.1  12159.6
   15900.3  12172.9
   15909.4  12186.3
   15918.5  12199.6
   15927.7  12213.0
   15936.8  12226.3
   15946.0  12239.7
   15955.2  12253.1
   15964.3  12266.4
   15973.5  12279.8
   15982.7  12293.1
   15991.9  12306.5
   16001.0  12319.9
   16010.2  12333.3
   16019.4  12346.6
   16028.6  12360.0
   16037.8  12373.4
   16047.1  12386.8
   16056.3  12400.2
   16065.5  12413.5
   16074.7  12426.9
   16084.0  12440.3
   16093.2  12453.7
   16102.5  12467.1
   16111.7  12480.5
   16121.0  12493.9
   16130.2  12507.3
   16139.5  12520.7
   16148.8  12534.1
   16158.0  12547.5
   16167.3  12560.9
   16176.6  12574.3
   16185.9  12587.7
   16195.2  12601.1
   16204.5  12614.5
   16213.8  12628.0
   16223.1  12641.4
   16232.5  12654.8
   16241.8  12668.2
   16251.1  12681.6
   16260.5  12695.0
   16269.8  12708.5
   16279.1  12721.9
   16288.5  12735.3
   16297.9  12748.7
   16307.2  12762.2
   16316.6  12775.6
   16326.0  12789.0
   16335.3  12802.5
   16344.7  12815.9
   16354.1  12829.3
   16363.5  12842.8
   16372.9  12856.2
   16382.3  12869.7
   16391.7  12883.1
   16401.2  12896.5
   16410.6  12910.0
   16420.0  12923.4
   16429.4  12936.9
   16438.9  12950.3
   16448.3  12963.8
   16457.8  12977.2
   16467.2  12990.7
   16476.7  13004.1
   16486.2  13017.6
   16495.6  13031.0
   16505.1  13044.5
   16514.6  13057.9
   16524.1  13071.4
   16533.6  13084.8
   16543.1  13098.3
   16552.6  13111.7
   16562.1  13125.2
   16571.6  13138.6
   16581.1  13152.1
   16590.6  13165.5
   16600.2  13179.0
   16609.7  13192.4
   16619.3  13205.9
   16628.8  13219.4
   16638.4  13232.8
   16647.9  13246.3
   16657.5  13259.7
   16667.1  13273.2
   16676.6  13286.6
   16686.2  13300.1
   16695.8  13313.5
   16705.4  13327.0
   16715.0  13340.4
   16724.6  13353.9
   16734.2  13367.4
   16743.8  13380.8
   16753.4  13394.3
   16763.1  13407.7
   16772.7  13421.2
   16782.3  13434.6
   16792.0  13448.1
   16801.6  13461.5
   16811.3  13475.0
   16820.9  13488.4
   16830.6  13501.9
   16840.3  13515.3
   16849.9  13528.8
   16859.6  13542.2
   16869.3  13555.7
   16879.0  13569.1
   16888.7  13582.6
   16898.4  13596.0
   16908.1  13609.5
   16917.8  13622.9
   16927.5  13636.4
   16937.3  13649.8
   16947.0  13663.3
   16956.7  13676.7
   16966.5  13690.2
   16976.2  13703.6
   16986.0  13717.0
   16995.7  13730.5
   17005.5  13743.9
   17015.3  13757.4
   17025.0  13770.8
   17034.8  13784.2
   17044.6  13797.7
   17054.4  13811.1
   17064.2  13824.5
   17074.0  13838.0
   17083.8  13851.4
   17093.6  13864.8
   17103.5  13878.2
   17113.3  13891.7
   17123.1  13905.1
   17133.0  13918.5
   17142.8  13931.9
   17152.6  13945.4
   17162.5  13958.8
   17172.4  13972.2
   17182.2  13985.6
   17192.1  13999.0
   17202.0  14012.4
   17211.9  14025.8
   17221.7  14039.2
   17231.6  14052.6
   17241.5  14066.1
   17251.4  14079.5
   17261.4  14092.9
   17271.3  14106.2
   17281.2  14119.7
   17291.1  14133.0
   17301.1  14146.4
   17311.0  14159.8
   17320.9  14173.2
   17330.9  14186.6
   17340.9  14200.0
   17350.8  14213.4
   17360.8  14226.7
   17370.8  14240.1
   17380.7  14253.5
   17390.7  14266.9
   17400.7  14280.2
   17410.7  14293.6
   17420.7  14307.0
   17430.7  14320.3
   17440.7  14333.7
   17450.8  14347.0
   17460.8  14360.4
   17470.8  14373.7
   17480.9  14387.1
   17490.9  14400.4
   17500.9  14413.8
   17511.0  14427.1
   17521.1  14440.4
   17531.1  14453.8
   17541.2  14467.1
   17551.3  14480.4
   17561.4  14493.8
   17571.5  14507.1
   17581.6  14520.4
   17591.7  14533.7
   17601.8  14547.0
   17611.9  14560.3
   17622.0  14573.7
   17632.1  14587.0
   17642.2  14600.3
   17652.4  14613.6
   17662.5  14626.9
   17672.7  14640.1
   17682.8  14653.4
   17693.0  14666.7
   17703.1  14680.0
   17713.3  14693.3
   17723.5  14706.6
   17733.7  14719.9
   17743.9  14733.1
   17754.1  14746.4
   17764.3  14759.7
   17774.5  14772.9
   17784.7  14786.2
   17794.9  14799.4
   17805.1  14812.7
   17815.4  14825.9
   17825.6  14839.2
   17835.8  14852.4
   17846.1  14865.7
   17856.3  14878.9
   17866.6  14892.1
   17876.9  14905.3
   17887.1  14918.6
   17897.4  14931.8
   17907.7  14945.0
   17918.0  14958.2
   17928.3  14971.4
   17938.6  14984.6
   17948.9  14997.8
   17959.2  15011.0
   17969.5  15024.2
   17979.8  15037.4
   17990.2  15050.6
   18000.5  15063.7
   18010.8  15076.9
   18021.2  15090.1
   18031.5  15103.2
   18041.9  15116.4
   18052.3  15129.6
   18062.6  15142.7
   18073.0  15155.8
   18083.4  15169.0
   18093.8  15182.1
   18104.2  15195.2
   18114.6  15208.4
   18125.0  15221.5
   18135.4  15234.6
   18145.8  15247.7
   18156.2  15260.8
   18166.7  15273.9
   18177.1  15287.0
   18187.6  15300.1
   18198.0  15313.2
   18208.5  15326.3
   18218.9  15339.4
   18229.4  15352.5
   18239.9  15365.5
   18250.3  15378.6
   18260.8  15391.7
   18271.3  15404.7
   18281.8  15417.8
   18292.3  15430.8
   18302.8  15443.8
   18313.3  15456.9
   18323.9  15469.9
   18334.4  15482.9
   18344.9  15495.9
   18355.5  15509.0
   18366.0  15522.0
   18376.6  15535.0
   18387.1  15548.0
   18397.7  15561.0
   18408.3  15573.9
   18418.8  15586.9
   18429.4  15599.9
   18440.0  15612.9
   18450.6  15625.8
   18461.2  15638.8
   18471.8  15651.8
   18482.4  15664.7
   18493.0  15677.6
   18503.7  15690.6
   18514.3  15703.5
   18524.9  15716.4
   18535.6  15729.4
   18546.2  15742.3
   18556.9  15755.2
   18567.5  15768.1
   18578.2  15781.0
   18588.9  15793.9
   18599.6  15806.8
   18610.2  15819.6
   18620.9  15832.5
   18631.6  15845.4
   18642.3  15858.2
   18653.1  15871.1
   18663.8  15883.9
   18674.5  15896.8
   18685.2  15909.6
   18696.0  15922.5
   18706.7  15935.3
   18717.4  15948.1
   18728.2  15960.9
   18739.0  15973.7
   18749.7  15986.5
   18760.5  15999.3
   18771.3  16012.1
   18782.1  16024.9
   18792.9  16037.7
   18803.6  16050.4
   18814.5  16063.2
   18825.3  16075.9
   18836.1  16088.7
   18846.9  16101.4
   18857.7  16114.2
   18868.6  16126.9
   18879.4  16139.6
   18890.2  16152.3
   18901.1  16165.0
   18912.0  16177.7
   18922.8  16190.4
   18933.7  16203.1
   18944.6  16215.8
   18955.5  16228.4
   18966.4  16241.1
   18977.2  16253.8
   18988.2  16266.4
   18999.1  16279.1
   19010.0  16291.7
   19020.9  16304.3
   19031.8  16316.9
   19042.8  16329.6
   19053.7  16342.2
   19064.6  16354.8
   19075.6  16367.4
   19086.6  16380.0
   19097.5  16392.5
   19108.5  16405.1
   19119.5  16417.7
   19130.5  16430.2
   19141.5  16442.8
   19152.4  16455.3
   19163.5  16467.9
   19174.5  16480.4
   19185.5  16492.9
   19196.5  16505.4
   19207.5  16517.9
   19218.6  16530.4
   19229.6  16542.9
   19240.7  16555.4
   19251.7  16567.9
   19262.8  16580.3
   19273.8  16592.8
   19284.9  16605.3
   19296.0  16617.7
   19307.1  16630.1
   19318.2  16642.6
   19329.3  16655.0
   19340.4  16667.4
   19351.5  16679.8
   19362.6  16692.2
   19373.7  16704.6
   19384.9  16717.0
   19396.0  16729.3
   19407.1  16741.7
   19418.3  16754.1
   19429.4  16766.4
   19440.6  16778.8
   19451.8  16791.1
   19463.0  16803.4
   19474.1  16815.7
   19485.3  16828.0
   19496.5  16840.3
   19507.7  16852.6
   19518.9  16864.9
   19530.1  16877.2
   19541.4  16889.4
   19552.6  16901.7
   19563.8  16913.9
   19575.1  16926.2
   19586.3  16938.4
   19597.6  16950.6
   19608.8  16962.8
   19620.1  16975.0
   19631.4  16987.2
   19642.6  16999.4
   19653.9  17011.6
   19665.2  17023.8
   19676.5  17035.9
   19687.8  17048.1
   19699.1  17060.2
   19710.4  17072.4
   19721.8  17084.5
   19733.1  17096.6
   19744.4  17108.7
   19755.8  17120.8
   19767.1  17132.9
   19778.5  17145.1
   19789.9  17157.3
   19801.2  17169.4
   19812.6  17181.6
   19824.0  17193.7
   19835.4  17205.9
   19846.8  17218.0
   19858.2  17230.1
   19869.6  17242.2
   19881.0  17254.3
   19892.4  17266.4
   19903.8  17278.5
   19915.3  17290.5
   19926.7  17302.6
   19938.2  17314.7
   19949.6  17326.7
   19961.1  17338.7
   19972.6  17350.8
   19984.0  17362.8
   19995.5  17374.8
   20007.0  17387.2
   20018.5  17399.8
   20030.0  17412.5
   20038.9  17422.3
   20047.9  17432.1
   20056.8  17441.9
   20065.7  17451.6
   20074.7  17461.4
   20083.6  17471.2
   20092.6  17480.9
   20101.5  17490.6
   20110.5  17500.3
   20119.5  17510.0
   20128.4  17519.7
   20137.4  17529.3
   20146.4  17539.0
   20155.4  17548.7
   20164.4  17558.3
   20173.3  17568.0
   20182.3  17577.6
   20191.3  17587.3
   20200.3  17596.9
   20209.3  17606.6
   20218.3  17616.2
   20227.4  17625.8
   20236.4  17635.5
   20245.4  17645.1
   20254.4  17654.7
   20263.5  17664.3
   20272.5  17673.9
   20281.5  17683.5
   20290.6  17693.1
   20299.6  17702.7
   20308.7  17712.3
   20317.7  17721.9
   20326.8  17731.4
   20335.8  17741.0
   20344.9  17750.6
   20354.0  17760.2
   20363.0  17769.7
   20372.1  17779.3
   20381.2  17788.8
   20390.3  17798.4
   20399.4  17807.9
   20408.5  17817.4
   20417.6  17827.0
   20426.7  17836.5
   20435.8  17846.0
   20444.9  17855.5
   20454.0  17865.0
   20463.1  17874.5
   20472.2  17884.0
   20481.4  17893.5
   20490.5  17903.0
   20499.6  17912.5
   20508.8  17922.0
   20517.9  17931.4
   20527.1  17940.9
   20536.2  17950.4
   20545.4  17959.8
   20554.5  17969.3
   20563.7  17978.8
   20572.9  17988.2
   20582.0  17997.7
   20591.2  18007.1
   20600.4  18016.5
   20609.6  18025.9
   20618.8  18035.4
   20627.9  18044.8
   20637.1  18054.2
   20646.3  18063.6
   20655.5  18073.0
   20664.8  18082.4
   20674.0  18091.8
   20683.2  18101.2
   20692.4  18110.6
   20701.6  18119.9
   20710.8  18129.3
   20720.1  18138.7
   20729.3  18148.0
   20738.6  18157.4
   20747.8  18166.8
   20757.1  18176.1
   20766.3  18185.4
   20775.6  18194.8
   20784.8  18204.1
   20794.1  18213.4
   20803.4  18222.7
   20812.6  18232.0
   20821.9  18241.3
   20831.2  18250.6
   20840.5  18259.9
   20849.8  18269.2
   20859.1  18278.5
   20868.4  18287.8
   20877.7  18297.1
   20887.0  18306.3
   20896.3  18315.6
   20905.6  18324.8
   20914.9  18334.1
   20924.2  18343.3
   20933.6  18352.6
   20942.9  18361.8
   20952.2  18371.1
   20961.6  18380.3
   20970.9  18389.5
   20980.3  18398.7
   20989.6  18407.9
   20999.0  18417.1
   21008.3  18426.3
   21017.7  18435.5
   21027.1  18444.7
   21036.5  18453.9
   21045.8  18463.1
   21055.2  18472.3
   21064.6  18481.4
   21074.0  18490.6
   21083.4  18499.8
   21092.8  18508.9
   21102.2  18518.1
   21111.6  18527.2
   21121.0  18536.3
   21130.4  18545.5
   21139.8  18554.6
   21149.3  18563.7
   21158.7  18572.8
   21168.1  18581.9
   21177.6  18591.0
   21187.0  18600.1
   21196.4  18609.2
   21205.9  18618.3
   21215.3  18627.4
   21224.8  18636.4
   21234.3  18645.5
   21243.7  18654.6
   21253.2  18663.6
   21262.7  18672.7
   21272.2  18681.7
   21281.6  18690.8
   21291.1  18699.8
   21300.6  18708.8
   21310.1  18717.9
   21319.6  18726.9
   21329.1  18735.9
   21338.6  18744.9
   21348.1  18753.9
   21357.7  18762.9
   21367.2  18771.9
   21376.7  18780.9
   21386.2  18789.9
   21395.8  18798.9
   21405.3  18807.8
   21414.8  18816.8
   21424.4  18825.8
   21433.9  18834.7
   21443.5  18843.6
   21453.1  18852.6
   21462.6  18861.5
   21472.2  18870.4
   21481.8  18879.4
   21491.3  18888.3
   21500.9  18897.2
   21510.5  18906.1
   21520.1  18915.0
   21529.7  18923.9
   21539.3  18932.8
   21548.9  18941.6
   21558.5  18950.5
   21568.1  18959.4
   21577.7  18968.2
   21587.3  18977.1
   21597.0  18986.0
   21606.6  18994.8
   21616.2  19003.6
   21625.9  19012.5
   21635.5  19021.3
   21645.1  19030.1
   21654.8  19039.0
   21664.4  19047.8
   21674.1  19056.6
   21683.8  19065.4
   21693.4  19074.2
   21703.1  19083.0
   21712.8  19091.7
   21722.5  19100.5
   21732.1  19109.3
   21741.8  19118.1
   21751.5  19126.8
   21761.2  19135.6
   21770.9  19144.3
   21780.6  19153.1
   21790.3  19161.8
   21800.0  19170.5
   21809.8  19179.3
   21819.5  19188.0
   21829.2  19196.7
   21838.9  19205.4
   21848.7  19214.1
   21858.4  19222.8
   21868.2  19231.5
   21877.9  19240.2
   21887.7  19248.8
   21897.4  19257.5
   21907.2  19266.2
   21916.9  19274.8
   21926.7  19283.5
   21936.5  19292.1
   21946.3  19300.8
   21956.1  19309.4
   21965.8  19318.0
   21975.6  19326.7
   21985.4  19335.3
   21995.2  19343.9
   22005.0  19352.5
   22014.8  19361.1
   22024.7  19369.7
   22034.5  19378.3
   22044.3  19386.9
   22054.1  19395.4
   22064.0  19404.0
   22073.8  19412.6
   22083.6  19421.1
   22093.5  19429.7
   22103.3  19438.3
   22113.2  19446.8
   22123.0  19455.3
   22132.9  19463.8
   22142.8  19472.4
   22152.6  19480.9
   22162.5  19489.4
   22172.4  19497.9
   22182.3  19506.4
   22192.2  19514.9
   22202.1  19523.3
   22212.0  19531.8
   22221.9  19540.3
   22231.8  19548.8
   22241.7  19557.2
   22251.6  19565.7
   22261.5  19574.1
   22271.4  19582.5
   22281.4  19591.0
   22291.3  19599.4
   22301.2  19607.8
   22311.2  19616.3
   22321.1  19624.7
   22331.1  19633.1
   22341.0  19641.5
   22351.0  19649.9
   22360.9  19658.2
   22370.9  19666.6
   22380.9  19675.0
   22390.9  19683.4
   22400.8  19691.7
   22410.8  19700.1
   22420.8  19708.4
   22430.8  19716.8
   22440.8  19725.1
   22450.8  19733.4
   22460.8  19741.8
   22470.8  19750.1
   22480.9  19758.4
   22490.9  19766.7
   22500.9  19775.0
   22510.9  19783.3
   22521.0  19791.6
   22531.0  19799.8
   22541.1  19808.1
   22551.1  19816.4
   22561.2  19824.6
   22571.2  19832.9
   22581.3  19841.1
   22591.3  19849.4
   22601.4  19857.6
   22611.5  19865.8
   22621.6  19874.0
   22631.7  19882.3
   22641.7  19890.5
   22651.8  19898.7
   22661.9  19906.9
   22672.0  19915.1
   22682.1  19923.2
   22692.3  19931.4
   22702.4  19939.6
   22712.5  19947.8
   22722.6  19955.9
   22732.7  19964.1
   22742.9  19972.2
   22753.0  19980.4
   22763.2  19988.5
   22773.3  19996.6
   22783.5  20004.8
   22793.6  20012.9
   22803.8  20021.0
   22813.9  20029.1
   22824.1  20037.2
   22834.3  20045.3
   22844.5  20053.4
   22854.7  20061.4
   22864.8  20069.5
   22875.0  20077.6
   22885.2  20085.6
   22895.4  20093.6
   22905.6  20101.7
   22915.9  20109.7
   22926.1  20117.8
   22936.3  20125.8
   22946.5  20133.8
   22956.7  20141.8
   22967.0  20149.8
   22977.2  20157.8
   22987.5  20165.8
   22997.7  20173.8
   23008.0  20181.8
   23018.2  20189.7
   23028.5  20197.7
   23038.7  20205.7
   23049.0  20213.6
   23059.3  20221.6
   23069.6  20229.5
   23079.8  20237.4
   23090.1  20245.4
   23100.4  20253.3
   23110.7  20261.2
   23121.0  20269.1
   23131.3  20277.0
   23141.7  20284.9
   23152.0  20292.8
   23162.3  20300.7
   23172.6  20308.6
   23182.9  20316.4
   23193.3  20324.3
   23203.6  20332.2
   23214.0  20340.0
   23224.3  20347.8
   23234.7  20355.7
   23245.0  20363.5
   23255.4  20371.3
   23265.8  20379.2
   23276.1  20387.0
   23286.5  20394.8
   23296.9  20402.6
   23307.3  20410.3
   23317.7  20418.1
   23328.0  20425.9
   23338.4  20433.7
   23348.9  20441.4
   23359.3  20449.2
   23369.7  20456.9
   23380.1  20464.7
   23390.5  20472.4
   23400.9  20480.2
   23411.4  20487.9
   23421.8  20495.6
   23432.2  20503.3
   23442.7  20511.0
   23453.1  20518.7
   23463.6  20526.4
   23474.1  20534.1
   23484.5  20541.8
   23495.0  20549.5
   23505.5  20557.1
   23515.9  20564.8
   23526.4  20572.4
   23536.9  20580.1
   23547.4  20587.7
   23557.9  20595.4
   23568.4  20603.0
   23578.9  20610.6
   23589.4  20618.2
   23599.9  20625.8
   23610.5  20633.4
   23621.0  20641.0
   23631.5  20648.6
   23642.1  20656.2
   23652.6  20663.8
   23663.1  20671.3
   23673.7  20678.9
   23684.2  20686.4
   23694.8  20694.0
   23705.4  20701.5
   23715.9  20709.1
   23726.5  20716.6
   23737.1  20724.1
   23747.7  20731.6
   23758.2  20739.1
   23768.8  20746.6
   23779.4  20754.1
   23790.0  20761.6
   23800.6  20769.1
   23811.2  20776.6
   23821.9  20784.0
   23832.5  20791.5
   23843.1  20798.9
   23853.7  20806.4
   23864.4  20813.8
   23875.0  20821.3
   23885.7  20828.7
   23896.3  20836.1
   23907.0  20843.5
   23917.6  20850.9
   23928.3  20858.4
   23938.9  20865.7
   23949.6  20873.1
   23960.3  20880.5
   23971.0  20887.9
   23981.7  20895.3
   23992.3  20902.6
   24003.0  20910.0
   24013.7  20917.3
   24024.4  20924.7
   24035.2  20932.0
   24045.9  20939.3
   24056.6  20946.6
   24067.3  20954.0
   24078.0  20961.3
   24088.8  20968.6
   24099.5  20975.9
   24110.3  20983.2
   24121.0  20990.4
   24131.8  20997.7
   24142.5  21005.0
   24153.3  21012.2
   24164.0  21019.5
   24174.8  21026.7
   24185.6  21034.0
   24196.4  21041.2
   24207.2  21048.4
   24218.0  21055.7
   24228.7  21062.9
   24239.5  21070.1
   24250.4  21077.3
   24261.2  21084.5
   24272.0  21091.7
   24282.8  21098.9
   24293.6  21106.0
   24304.5  21113.2
   24315.3  21120.4
   24326.1  21127.5
   24337.0  21134.7
   24347.8  21141.8
   24358.7  21148.9
   24369.5  21156.1
   24380.4  21163.2
   24391.3  21170.3
   24402.1  21177.4
   24413.0  21184.5
   24423.9  21191.6
   24434.8  21198.7
   24445.7  21205.8
   24456.6  21212.8
   24467.5  21219.9
   24478.4  21227.0
   24489.3  21234.0
   24500.2  21241.1
   24511.1  21248.1
   24522.1  21255.1
   24533.0  21262.2
   24543.9  21269.2
   24554.9  21276.2
   24565.8  21283.2
   24576.8  21290.2
   24587.7  21297.2
   24598.7  21304.2
   24609.7  21311.1
   24620.6  21318.1
   24631.6  21325.1
   24642.6  21332.0
   24653.6  21339.0
   24664.6  21345.9
   24675.6  21352.9
   24686.6  21359.8
   24697.6  21366.7
   24708.6  21373.7
   24719.6  21380.6
   24730.6  21387.5
   24741.6  21394.4
   24752.7  21401.3
   24763.7  21408.2
   24774.7  21415.0
   24785.8  21421.9
   24796.8  21428.8
   24807.9  21435.6
   24818.9  21442.5
   24830.0  21449.3
   24841.1  21456.2
   24852.1  21463.0
   24863.2  21469.8
   24874.3  21476.6
   24885.4  21483.4
   24896.5  21490.2
   24907.6  21497.0
   24918.7  21503.8
   24929.8  21510.6
   24940.9  21517.4
   24952.0  21524.2
   24963.2  21530.9
   24974.3  21537.7
   24985.4  21544.4
   24996.6  21551.2
   25007.7  21557.9
   25018.8  21564.6
   25030.0  21571.4
   25039.1  21576.8
   25048.1  21582.3
   25057.2  21587.7
   25066.3  21593.2
   25075.4  21598.6
   25084.5  21604.1
   25093.5  21609.5
   25102.6  21614.9
   25111.7  21620.3
   25120.8  21625.8
   25129.9  21631.2
   25139.0  21636.6
   25148.1  21642.0
   25157.3  21647.4
   25166.4  21652.8
   25175.5  21658.2
   25184.6  21663.6
   25193.7  21669.0
   25202.9  21674.4
   25212.0  21679.7
   25221.1  21685.1
   25230.3  21690.5
   25239.4  21695.8
   25248.6  21701.2
   25257.7  21706.5
   25266.9  21711.9
   25276.0  21717.2
   25285.2  21722.6
   25294.3  21727.9
   25303.5  21733.2
   25312.7  21738.6
   25321.8  21743.9
   25331.0  21749.2
   25340.2  21754.5
   25349.4  21759.8
   25358.5  21765.1
   25367.7  21770.4
   25376.9  21775.7
   25386.1  21781.0
   25395.3  21786.3
   25404.5  21791.6
   25413.7  21796.9
   25422.9  21802.2
   25432.1  21807.4
   25441.4  21812.7
   25450.6  21818.0
   25459.8  21823.2
   25469.0  21828.5
   25478.2  21833.7
   25487.5  21838.9
   25496.7  21844.2
   25506.0  21849.4
   25515.2  21854.7
   25524.4  21859.9
   25533.7  21865.1
   25542.9  21870.3
   25552.2  21875.5
   25561.4  21880.7
   25570.7  21885.9
   25580.0  21891.1
   25589.2  21896.3
   25598.5  21901.5
   25607.8  21906.7
   25617.1  21911.9
   25626.3  21917.1
   25635.6  21922.2
   25644.9  21927.4
   25654.2  21932.6
   25663.5  21937.7
   25672.8  21942.9
   25682.1  21948.0
   25691.4  21953.2
   25700.7  21958.3
   25710.0  21963.5
   25719.3  21968.6
   25728.7  21973.7
   25738.0  21978.8
   25747.3  21983.9
   25756.6  21989.1
   25766.0  21994.2
   25775.3  21999.3
   25784.6  22004.4
   25794.0  22009.5
   25803.3  22014.6
   25812.7  22019.7
   25822.0  22024.8
   25831.4  22029.8
   25840.7  22034.9
   25850.1  22040.0
   25859.5  22045.1
   25868.8  22050.1
   25878.2  22055.2
   25887.6  22060.2
   25897.0  22065.3
   25906.4  22070.3
   25915.7  22075.4
   25925.1  22080.4
   25934.5  22085.4
   25943.9  22090.5
   25953.3  22095.5
   25962.7  22100.5
   25972.1  22105.5
   25981.5  22110.5
   25991.0  22115.5
   26000.4  22120.5
   26009.8  22125.5
   26019.2  22130.5
   26028.6  22135.5
   26038.1  22140.5
   26047.5  22145.5
   26056.9  22150.4
   26066.4  22155.4
   26075.8  22160.4
   26085.3  22165.3
   26094.7  22170.3
   26104.2  22175.2
   26113.6  22180.2
   26123.1  22185.1
   26132.6  22190.1
   26142.0  22195.0
   26151.5  22199.9
   26161.0  22204.9
   26170.5  22209.8
   26179.9  22214.7
   26189.4  22219.6
   26198.9  22224.5
   26208.4  22229.4
   26217.9  22234.3
   26227.4  22239.2
   26236.9  22244.1
   26246.4  22249.0
   26255.9  22253.9
   26265.4  22258.8
   26274.9  22263.7
   26284.5  22268.5
   26294.0  22273.4
   26303.5  22278.2
   26313.0  22283.1
   26322.6  22288.0
   26332.1  22292.8
   26341.7  22297.6
   26351.2  22302.5
   26360.7  22307.3
   26370.3  22312.2
   26379.9  22317.0
   26389.4  22321.8
   26399.0  22326.6
   26408.5  22331.4
   26418.1  22336.2
   26427.7  22341.0
   26437.2  22345.8
   26446.8  22350.6
   26456.4  22355.4
   26466.0  22360.2
   26475.6  22365.0
   26485.2  22369.8
   26494.8  22374.5
   26504.4  22379.3
   26514.0  22384.1
   26523.6  22388.8
   26533.2  22393.6
   26542.8  22398.3
   26552.4  22403.1
   26562.0  22407.8
   26571.7  22412.6
   26581.3  22417.3
   26590.9  22422.0
   26600.6  22426.7
   26610.2  22431.5
   26619.8  22436.2
   26629.5  22440.9
   26639.1  22445.6
   26648.8  22450.3
   26658.4  22455.0
   26668.1  22459.7
   26677.8  22464.4
   26687.4  22469.1
   26697.1  22473.8
   26706.8  22478.4
   26716.4  22483.1
   26726.1  22487.8
   26735.8  22492.4
   26745.5  22497.1
   26755.2  22501.8
   26764.9  22506.4
   26774.6  22511.1
   26784.3  22515.7
   26794.0  22520.3
   26803.7  22525.0
   26813.4  22529.6
   26823.1  22534.2
   26832.8  22538.9
   26842.5  22543.5
   26852.3  22548.1
   26862.0  22552.7
   26871.7  22557.3
   26881.5  22561.9
   26891.2  22566.5
   26901.0  22571.1
   26910.7  22575.7
   26920.5  22580.3
   26930.2  22584.8
   26940.0  22589.4
   26949.7  22594.0
   26959.5  22598.5
   26969.3  22603.1
   26979.0  22607.7
   26988.8  22612.2
   26998.6  22616.8
   27008.4  22621.3
   27018.1  22625.8
   27027.9  22630.4
   27037.7  22634.9
   27047.5  22639.4
   27057.3  22644.0
   27067.1  22648.5
   27076.9  22653.0
   27086.7  22657.5
   27096.6  22662.0
   27106.4  22666.5
   27116.2  22671.0
   27126.0  22675.5
   27135.8  22680.0
   27145.7  22684.5
   27155.5  22689.0
   27165.4  22693.4
   27175.2  22697.9
   27185.0  22702.4
   27194.9  22706.8
   27204.7  22711.3
   27214.6  22715.7
   27224.5  22720.2
   27234.3  22724.7
   27244.2  22729.1
   27254.1  22733.5
   27263.9  22738.0
   27273.8  22742.4
   27283.7  22746.8
   27293.6  22751.2
   27303.5  22755.6
   27313.4  22760.1
   27323.3  22764.5
   27333.2  22768.9
   27343.1  22773.3
   27353.0  22777.7
   27362.9  22782.0
   27372.8  22786.4
   27382.7  22790.8
   27392.6  22795.2
   27402.6  22799.6
   27412.5  22803.9
   27422.4  22808.3
   27432.3  22812.7
   27442.3  22817.0
   27452.2  22821.4
   27462.2  22825.7
   27472.1  22830.1
   27482.1  22834.4
   27492.0  22838.7
   27502.0  22843.1
   27512.0  22847.4
   27521.9  22851.7
   27531.9  22856.0
   27541.9  22860.3
   27551.9  22864.7
   27561.8  22869.0
   27571.8  22873.3
   27581.8  22877.6
   27591.8  22881.9
   27601.8  22886.1
   27611.8  22890.4
   27621.8  22894.7
   27631.8  22899.0
   27641.8  22903.3
   27651.8  22907.5
   27661.9  22911.8
   27671.9  22916.1
   27681.9  22920.3
   27691.9  22924.6
   27702.0  22928.8
   27712.0  22933.1
   27722.0  22937.3
   27732.1  22941.5
   27742.1  22945.8
   27752.2  22950.0
   27762.2  22954.2
   27772.3  22958.4
   27782.4  22962.6
   27792.4  22966.8
   27802.5  22971.1
   27812.6  22975.3
   27822.7  22979.4
   27832.7  22983.6
   27842.8  22987.8
   27852.9  22992.0
   27863.0  22996.2
   27873.1  23000.4
   27883.2  23004.6
   27893.3  23008.7
   27903.4  23012.9
   27913.5  23017.0
   27923.6  23021.2
   27933.7  23025.3
   27943.9  23029.5
   27954.0  23033.6
   27964.1  23037.8
   27974.2  23041.9
   27984.4  23046.0
   27994.5  23050.2
   28004.7  23054.3
   28014.8  23058.4
   28025.0  23062.5
   28035.1  23066.6
   28045.3  23070.8
   28055.4  23074.9
   28065.6  23079.0
   28075.8  23083.0
   28085.9  23087.1
   28096.1  23091.2
   28106.3  23095.3
   28116.5  23099.4
   28126.7  23103.5
   28136.8  23107.5
   28147.0  23111.6
   28157.2  23115.6
   28167.4  23119.7
   28177.6  23123.8
   28187.9  23127.8
   28198.1  23131.9
   28208.3  23135.9
   28218.5  23139.9
   28228.7  23144.0
   28239.0  23148.0
   28249.2  23152.0
   28259.4  23156.0
   28269.7  23160.0
   28279.9  23164.0
   28290.2  23168.1
   28300.4  23172.1
   28310.7  23176.1
   28320.9  23180.1
   28331.2  23184.1
   28341.4  23188.0
   28351.7  23192.0
   28362.0  23196.0
   28372.3  23200.0
   28382.5  23203.9
   28392.8  23207.9
   28403.1  23211.9
   28413.4  23215.8
   28423.7  23219.8
   28434.0  23223.7
   28444.3  23227.7
   28454.6  23231.6
   28464.9  23235.6
   28475.2  23239.5
   28485.5  23243.4
   28495.9  23247.4
   28506.2  23251.3
   28516.5  23255.2
   28526.8  23259.1
   28537.2  23263.0
   28547.5  23266.9
   28557.9  23270.8
   28568.2  23274.7
   28578.6  23278.6
   28588.9  23282.5
   28599.3  23286.4
   28609.6  23290.3
   28620.0  23294.2
   28630.4  23298.0
   28640.7  23301.9
   28651.1  23305.8
   28661.5  23309.6
   28671.9  23313.5
   28682.3  23317.3
   28692.7  23321.2
   28703.1  23325.0
   28713.5  23328.9
   28723.9  23332.7
   28734.3  23336.5
   28744.7  23340.4
   28755.1  23344.2
   28765.5  23348.0
   28775.9  23351.8
   28786.4  23355.6
   28796.8  23359.5
   28807.2  23363.3
   28817.7  23367.1
   28828.1  23370.9
   28838.5  23374.7
   28849.0  23378.4
   28859.4  23382.2
   28869.9  23386.0
   28880.4  23389.8
   28890.8  23393.6
   28901.3  23397.3
   28911.8  23401.1
   28922.2  23404.9
   28932.7  23408.6
   28943.2  23412.4
   28953.7  23416.1
   28964.2  23419.9
   28974.7  23423.6
   28985.2  23427.3
   28995.7  23431.1
   29006.2  23434.8
   29016.7  23438.5
   29027.2  23442.3
   29037.7  23446.0
   29048.2  23449.7
   29058.8  23453.4
   29069.3  23457.1
   29079.8  23460.8
   29090.4  23464.5
   29100.9  23468.2
   29111.4  23471.9
   29122.0  23475.6
   29132.5  23479.3
   29143.1  23482.9
   29153.6  23486.6
   29164.2  23490.3
   29174.8  23494.0
   29185.3  23497.6
   29195.9  23501.3
   29206.5  23504.9
   29217.1  23508.6
   29227.7  23512.2
   29238.3  23515.9
   29248.8  23519.5
   29259.4  23523.2
   29270.0  23526.8
   29280.7  23530.4
   29291.3  23534.0
   29301.9  23537.7
   29312.5  23541.3
   29323.1  23544.9
   29333.7  23548.5
   29344.4  23552.1
   29355.0  23555.7
   29365.6  23559.3
   29376.3  23562.9
   29386.9  23566.5
   29397.6  23570.1
   29408.2  23573.7
   29418.9  23577.2
   29429.5  23580.8
   29440.2  23584.4
   29450.9  23587.9
   29461.5  23591.5
   29472.2  23595.1
   29482.9  23598.6
   29493.6  23602.2
   29504.2  23605.7
   29514.9  23609.3
   29525.6  23612.8
   29536.3  23616.3
   29547.0  23619.9
   29557.7  23623.4
   29568.4  23626.9
   29579.2  23630.4
   29589.9  23633.9
   29600.6  23637.5
   29611.3  23641.0
   29622.0  23644.5
   29632.8  23648.0
   29643.5  23651.5
   29654.3  23655.0
   29665.0  23658.4
   29675.7  23661.9
   29686.5  23665.4
   29697.3  23668.9
   29708.0  23672.4
   29718.8  23675.8
   29729.5  23679.3
   29740.3  23682.8
   29751.1  23686.2
   29761.9  23689.7
   29772.7  23693.1
   29783.4  23696.6
   29794.2  23700.0
   29805.0  23703.4
   29815.8  23706.9
   29826.6  23710.3
   29837.4  23713.7
   29848.2  23717.2
   29859.1  23720.6
   29869.9  23724.0
   29880.7  23727.4
   29891.5  23730.8
   29902.4  23734.2
   29913.2  23737.6
   29924.0  23741.0
   29934.9  23744.4
   29945.7  23747.8
   29956.6  23751.2
   29967.4  23754.6
   29978.3  23758.0
   29989.1  23761.3
   30000.0  23764.7
