 C Density=2.2, Angle=90.deg
 Photon Energy (eV), Atten Length (microns)
   30.0000  1.460819E-02
   30.3089  1.494951E-02
   30.6210  1.529896E-02
   30.9363  1.565662E-02
   31.2548  1.602267E-02
   31.5766  1.639721E-02
   31.9018  1.678054E-02
   32.2302  1.717286E-02
   32.5621  1.757431E-02
   32.8974  1.798513E-02
   33.2361  1.840558E-02
   33.5783  1.883582E-02
   33.9241  1.927613E-02
   34.2734  1.972678E-02
   34.6263  2.018793E-02
   34.9828  2.065849E-02
   35.3430  2.112344E-02
   35.7069  2.159719E-02
   36.0746  2.207993E-02
   36.4460  2.257345E-02
   36.8213  2.307799E-02
   37.2004  2.359378E-02
   37.5835  2.412116E-02
   37.9705  2.466031E-02
   38.3614  2.521140E-02
   38.7564  2.577491E-02
   39.1555  2.635574E-02
   39.5586  2.698789E-02
   39.9660  2.765698E-02
   40.3775  2.836124E-02
   40.7932  2.908348E-02
   41.2133  2.982409E-02
   41.6376  3.058359E-02
   42.0663  3.136235E-02
   42.4995  3.216095E-02
   42.9371  3.297995E-02
   43.3792  3.381986E-02
   43.8258  3.468116E-02
   44.2771  3.556420E-02
   44.7330  3.646114E-02
   45.1936  3.737205E-02
   45.6589  3.815243E-02
   46.1291  3.894917E-02
   46.6041  3.976259E-02
   47.0839  4.059288E-02
   47.5687  4.144047E-02
   48.0585  4.230574E-02
   48.5534  4.318910E-02
   49.0533  4.409094E-02
   49.5584  4.501169E-02
   50.0687  4.595163E-02
   50.5842  4.691119E-02
   51.1050  4.789091E-02
   51.6312  4.889107E-02
   52.1629  4.991209E-02
   52.7000  5.095420E-02
   53.2426  5.198046E-02
   53.7908  5.295709E-02
   54.3447  5.388227E-02
   54.9043  5.480435E-02
   55.4696  5.574226E-02
   56.0407  5.669631E-02
   56.6178  5.766673E-02
   57.2007  5.865376E-02
   57.7897  5.965754E-02
   58.3847  6.067839E-02
   58.9859  6.171696E-02
   59.5933  6.277326E-02
   60.2069  6.384756E-02
   60.8268  6.501383E-02
   61.4531  6.627546E-02
   62.0859  6.773319E-02
   62.7251  6.922281E-02
   63.3710  7.074519E-02
   64.0235  7.230131E-02
   64.6827  7.389171E-02
   65.3487  7.551718E-02
   66.0216  7.717809E-02
   66.7014  7.887554E-02
   67.3882  8.061033E-02
   68.0821  8.238333E-02
   68.7831  8.419523E-02
   69.4913  8.604685E-02
   70.2068  8.793960E-02
   70.9297  8.987409E-02
   71.6601  9.185081E-02
   72.3979  9.387090E-02
   73.1434  9.593534E-02
   73.8965  9.804548E-02
   74.6574  0.100202
   75.4261  0.102406
   76.2027  0.104658
   76.9874  0.106960
   77.7801  0.109313
   78.5809  0.111717
   79.3901  0.114174
   80.2075  0.116685
   81.0334  0.119252
   81.8677  0.121874
   82.7107  0.124555
   83.5623  0.127295
   84.4228  0.130094
   85.2920  0.132956
   86.1702  0.135880
   87.0575  0.138869
   87.9539  0.141923
   88.8595  0.145045
   89.7745  0.148235
   90.6988  0.151495
   91.6327  0.154827
   92.5762  0.158233
   93.5295  0.161713
   94.4925  0.165270
   95.4655  0.168905
   96.4484  0.172620
   97.4415  0.176416
   98.4448  0.180297
   99.4585  0.184262
   100.483  0.188315
   101.517  0.192457
   102.562  0.196690
   103.619  0.201016
   104.685  0.205437
   105.763  0.209956
   106.852  0.214573
   107.953  0.219293
   109.064  0.224116
   110.187  0.229046
   111.322  0.234084
   112.468  0.239233
   113.626  0.244495
   114.796  0.249872
   115.978  0.255367
   117.172  0.260984
   118.379  0.266725
   119.597  0.272591
   120.829  0.278587
   122.073  0.284714
   123.330  0.290976
   124.600  0.297376
   125.883  0.303916
   127.179  0.310601
   128.488  0.317434
   129.811  0.324415
   131.148  0.331549
   132.498  0.338881
   133.863  0.346882
   135.241  0.355072
   136.634  0.363455
   138.040  0.372037
   139.462  0.380821
   140.898  0.389813
   142.349  0.399015
   143.814  0.408435
   145.295  0.418079
   146.791  0.427950
   148.303  0.438054
   149.830  0.448396
   151.372  0.458984
   152.931  0.469823
   154.506  0.480914
   156.096  0.492267
   157.704  0.503889
   159.328  0.515788
   160.968  0.527968
   162.626  0.540434
   164.300  0.553191
   165.992  0.566250
   167.701  0.579621
   169.428  0.593307
   171.172  0.607316
   172.935  0.621653
   174.715  0.636331
   176.514  0.651356
   178.332  0.666735
   180.168  0.682476
   182.023  0.698588
   183.897  0.715083
   185.791  0.732608
   187.704  0.753485
   189.637  0.775005
   191.589  0.797170
   193.562  0.819963
   195.555  0.843409
   197.568  0.867527
   199.603  0.892336
   201.658  0.917855
   203.734  0.944103
   205.832  0.971097
   207.952  0.998865
   210.093  1.02743
   212.256  1.05681
   214.441  1.08703
   216.650  1.11812
   218.880  1.14979
   221.134  1.18206
   223.411  1.21399
   225.711  1.24672
   228.035  1.28033
   230.383  1.31484
   232.756  1.35029
   235.152  1.38670
   237.573  1.42408
   240.020  1.46248
   242.491  1.50190
   244.988  1.54379
   247.510  1.58800
   250.059  1.64343
   252.634  1.70089
   255.235  1.76036
   257.863  1.82191
   260.518  1.88561
   263.201  1.95154
   265.911  2.01977
   268.649  2.09038
   271.415  2.16347
   274.209  2.23912
   277.033  2.31741
   279.885  2.39843
   282.767  2.48229
   285.679  8.900802E-02
   288.620  9.105499E-02
   291.592  9.314907E-02
   294.594  9.529144E-02
   297.628  9.748294E-02
   300.692  9.972490E-02
   303.788  0.102019
   306.916  0.104365
   310.077  0.106765
   313.269  0.109220
   316.495  0.111732
   319.754  0.114302
   323.046  0.116931
   326.372  0.119620
   329.733  0.122371
   333.128  0.125185
   336.558  0.128065
   340.024  0.131010
   343.525  0.134023
   347.062  0.137105
   350.635  0.140258
   354.246  0.143484
   357.893  0.146784
   361.578  0.150160
   365.301  0.153613
   369.063  0.157146
   372.863  0.160761
   376.702  0.164529
   380.581  0.168587
   384.499  0.172868
   388.459  0.177311
   392.458  0.181869
   396.499  0.186543
   400.582  0.191338
   404.707  0.196256
   408.874  0.201301
   413.084  0.206476
   417.337  0.211783
   421.634  0.217226
   425.976  0.222810
   430.362  0.228538
   434.793  0.234412
   439.270  0.240438
   443.793  0.246618
   448.362  0.252957
   452.979  0.259459
   457.643  0.266128
   462.355  0.272968
   467.116  0.279985
   471.926  0.287182
   476.785  0.294563
   481.694  0.302141
   486.654  0.309947
   491.665  0.318077
   496.727  0.326422
   501.842  0.334985
   507.009  0.343774
   512.230  0.352792
   517.504  0.362047
   522.832  0.371545
   528.216  0.381293
   533.655  0.391297
   539.150  0.401562
   544.701  0.412097
   550.310  0.422909
   555.976  0.434003
   561.701  0.445389
   567.484  0.457075
   573.327  0.469067
   579.231  0.481372
   585.195  0.493999
   591.220  0.506959
   597.308  0.520259
   603.458  0.533909
   609.672  0.547916
   615.949  0.562289
   622.291  0.577041
   628.699  0.592180
   635.172  0.607716
   641.712  0.623659
   648.320  0.640022
   654.995  0.656811
   661.740  0.674042
   668.553  0.691727
   675.437  0.709482
   682.392  0.727495
   689.418  0.745644
   696.517  0.764124
   703.689  0.783317
   710.934  0.804353
   718.254  0.826683
   725.650  0.850100
   733.122  0.874176
   740.670  0.898933
   748.297  0.924392
   756.002  0.950572
   763.786  0.977496
   771.650  1.00519
   779.596  1.03368
   787.623  1.06298
   795.733  1.09312
   803.926  1.12412
   812.204  1.15600
   820.567  1.18878
   829.016  1.22248
   837.552  1.25713
   846.176  1.29288
   854.888  1.32969
   863.691  1.36763
   872.584  1.40675
   881.569  1.44701
   890.646  1.48841
   899.816  1.53100
   909.081  1.57480
   918.442  1.61986
   927.899  1.66633
   937.453  1.71424
   947.106  1.76358
   956.858  1.81434
   966.710  1.86660
   976.664  1.92038
   986.720  1.97571
   996.880  2.03262
   1007.14  2.09117
   1017.51  2.15137
   1027.99  2.21318
   1038.58  2.27715
   1049.27  2.34326
   1060.07  2.41204
   1070.99  2.48281
   1082.02  2.55564
   1093.16  2.63063
   1104.41  2.70785
   1115.79  2.78739
   1127.27  2.86920
   1138.88  2.95339
   1150.61  3.04003
   1162.46  3.12924
   1174.42  3.22107
   1186.52  3.31556
   1198.73  3.41283
   1211.08  3.51297
   1223.55  3.61607
   1236.15  3.72243
   1248.87  3.83230
   1261.73  3.94599
   1274.72  4.06342
   1287.85  4.18511
   1301.11  4.31040
   1314.51  4.43943
   1328.04  4.57232
   1341.72  4.70922
   1355.53  4.85024
   1369.49  4.99545
   1383.59  5.14501
   1397.84  5.29903
   1412.23  5.45769
   1426.77  5.62110
   1441.46  5.78942
   1456.30  5.96285
   1471.30  6.14154
   1486.45  6.32584
   1501.75  6.51626
   1517.22  6.71286
   1532.84  6.91555
   1548.62  7.12436
   1564.57  7.33950
   1580.68  7.56114
   1596.95  7.78949
   1613.40  8.02472
   1630.01  8.26707
   1646.79  8.51674
   1663.75  8.77391
   1680.88  9.03885
   1698.19  9.31177
   1715.67  9.59285
   1733.34  9.88335
   1751.18  10.1837
   1769.22  10.4939
   1787.43  10.8138
   1805.84  11.1437
   1824.43  11.4838
   1843.22  11.8342
   1862.20  12.1952
   1881.37  12.5672
   1900.74  12.9506
   1920.31  13.3457
   1940.09  13.7528
   1960.06  14.1724
   1980.24  14.6047
   2000.63  15.0491
   2021.23  15.5048
   2042.05  15.9790
   2063.07  16.4688
   2084.31  16.9738
   2105.78  17.4947
   2127.46  18.0317
   2149.36  18.5857
   2171.49  19.1569
   2193.85  19.7459
   2216.44  20.3537
   2239.26  20.9804
   2262.32  21.6265
   2285.62  22.2931
   2309.15  22.9804
   2332.93  23.6893
   2356.95  24.4210
   2381.22  25.1756
   2405.73  25.9537
   2430.51  26.7561
   2455.53  27.5837
   2480.81  28.4381
   2506.36  29.3191
   2532.17  30.2274
   2558.24  31.1647
   2584.58  32.1316
   2611.19  33.1298
   2638.08  34.1585
   2665.24  35.2195
   2692.68  36.3156
   2720.41  37.4461
   2748.42  38.6120
   2776.72  39.8151
   2805.31  41.0555
   2834.20  42.3344
   2863.38  43.6575
   2892.86  45.0217
   2922.65  46.4274
   2952.74  47.8790
   2983.15  49.3768
   3013.86  50.9224
   3044.89  52.5177
   3076.25  54.1638
   3107.92  55.8630
   3139.92  57.6163
   3172.25  59.4255
   3204.92  61.2932
   3237.92  63.2206
   3271.26  65.2100
   3304.94  67.2637
   3338.97  69.3830
   3373.35  71.5703
   3408.08  73.8287
   3443.17  76.1593
   3478.63  78.5660
   3514.45  81.0502
   3550.63  83.6143
   3587.19  86.2628
   3624.13  88.9964
   3661.44  91.8182
   3699.14  94.7321
   3737.23  97.7400
   3775.71  100.846
   3814.59  104.054
   3853.87  107.366
   3893.55  110.786
   3933.64  114.318
   3974.14  117.963
   4015.06  121.702
   4056.40  125.575
   4098.17  129.589
   4140.37  133.735
   4183.00  138.016
   4226.07  142.433
   4269.59  146.997
   4313.55  151.708
   4357.96  156.572
   4402.83  161.593
   4448.17  166.776
   4493.97  172.132
   4540.24  177.661
   4586.99  183.370
   4634.22  189.268
   4681.94  195.357
   4730.15  201.643
   4778.85  208.134
   4828.06  214.837
   4877.77  221.758
   4928.00  228.905
   4978.74  236.285
   5030.00  243.907
   5036.95  244.953
   5043.91  246.003
   5050.87  247.058
   5057.85  248.117
   5064.83  249.182
   5071.83  250.252
   5078.84  251.326
   5085.85  252.405
   5092.88  253.488
   5099.91  254.576
   5106.96  255.668
   5114.01  256.765
   5121.07  257.867
   5128.15  258.973
   5135.23  260.084
   5142.32  261.201
   5149.43  262.321
   5156.54  263.448
   5163.66  264.578
   5170.79  265.714
   5177.94  266.854
   5185.09  267.999
   5192.25  269.149
   5199.42  270.304
   5206.60  271.463
   5213.80  272.628
   5221.00  273.798
   5228.21  274.975
   5235.43  276.157
   5242.66  277.343
   5249.90  278.535
   5257.16  279.732
   5264.42  280.933
   5271.69  282.140
   5278.97  283.352
   5286.26  284.569
   5293.56  285.792
   5300.88  287.019
   5308.20  288.253
   5315.53  289.493
   5322.87  290.737
   5330.23  291.988
   5337.59  293.243
   5344.96  294.504
   5352.34  295.770
   5359.74  297.041
   5367.14  298.319
   5374.55  299.601
   5381.98  300.889
   5389.41  302.182
   5396.85  303.483
   5404.31  304.789
   5411.77  306.101
   5419.25  307.418
   5426.73  308.740
   5434.23  310.069
   5441.74  311.403
   5449.25  312.743
   5456.78  314.089
   5464.32  315.440
   5471.87  316.797
   5479.42  318.160
   5486.99  319.530
   5494.57  320.906
   5502.16  322.287
   5509.76  323.674
   5517.37  325.067
   5524.99  326.466
   5532.62  327.872
   5540.27  329.283
   5547.92  330.699
   5555.58  332.123
   5563.26  333.552
   5570.94  334.987
   5578.63  336.428
   5586.34  337.875
   5594.06  339.329
   5601.78  340.789
   5609.52  342.254
   5617.27  343.727
   5625.03  345.205
   5632.80  346.690
   5640.58  348.181
   5648.37  349.678
   5656.17  351.183
   5663.98  352.695
   5671.81  354.215
   5679.64  355.741
   5687.49  357.273
   5695.34  358.812
   5703.21  360.358
   5711.09  361.910
   5718.98  363.469
   5726.88  365.034
   5734.79  366.606
   5742.71  368.185
   5750.64  369.772
   5758.58  371.366
   5766.54  372.967
   5774.50  374.575
   5782.48  376.190
   5790.47  377.812
   5798.46  379.440
   5806.47  381.076
   5814.49  382.718
   5822.52  384.368
   5830.57  386.025
   5838.62  387.688
   5846.69  389.361
   5854.76  391.041
   5862.85  392.728
   5870.95  394.423
   5879.06  396.124
   5887.18  397.833
   5895.31  399.550
   5903.45  401.273
   5911.61  403.004
   5919.77  404.742
   5927.95  406.487
   5936.14  408.241
   5944.34  410.001
   5952.55  411.769
   5960.77  413.545
   5969.00  415.328
   5977.25  417.119
   5985.50  418.918
   5993.77  420.724
   6002.05  422.538
   6010.34  424.360
   6018.64  426.190
   6026.96  428.028
   6035.28  429.874
   6043.62  431.729
   6051.97  433.592
   6060.32  435.462
   6068.70  437.341
   6077.08  439.227
   6085.47  441.121
   6093.88  443.025
   6102.29  444.935
   6110.72  446.853
   6119.16  448.781
   6127.62  450.715
   6136.08  452.663
   6144.56  454.619
   6153.04  456.583
   6161.54  458.556
   6170.05  460.536
   6178.58  462.525
   6187.11  464.523
   6195.66  466.529
   6204.21  468.545
   6212.78  470.568
   6221.37  472.599
   6229.96  474.641
   6238.56  476.691
   6247.18  478.751
   6255.81  480.819
   6264.45  482.896
   6273.10  484.983
   6281.77  487.077
   6290.45  489.180
   6299.14  491.293
   6307.84  493.415
   6316.55  495.545
   6325.27  497.685
   6334.01  499.835
   6342.76  501.996
   6351.52  504.165
   6360.29  506.343
   6369.08  508.531
   6377.88  510.728
   6386.69  512.934
   6395.51  515.150
   6404.34  517.375
   6413.19  519.609
   6422.05  521.854
   6430.92  524.107
   6439.80  526.374
   6448.70  528.649
   6457.60  530.933
   6466.52  533.229
   6475.45  535.533
   6484.40  537.846
   6493.36  540.171
   6502.32  542.505
   6511.31  544.849
   6520.30  547.202
   6529.31  549.566
   6538.33  551.942
   6547.36  554.328
   6556.40  556.724
   6565.46  559.131
   6574.52  561.547
   6583.61  563.975
   6592.70  566.412
   6601.81  568.859
   6610.92  571.318
   6620.06  573.786
   6629.20  576.265
   6638.36  578.755
   6647.53  581.257
   6656.71  583.771
   6665.90  586.295
   6675.11  588.830
   6684.33  591.376
   6693.56  593.932
   6702.81  596.499
   6712.07  599.078
   6721.34  601.666
   6730.62  604.267
   6739.92  606.878
   6749.23  609.500
   6758.55  612.137
   6767.89  614.783
   6777.24  617.440
   6786.60  620.111
   6795.97  622.791
   6805.36  625.482
   6814.76  628.187
   6824.17  630.901
   6833.60  633.628
   6843.04  636.365
   6852.49  639.114
   6861.95  641.878
   6871.43  644.654
   6880.92  647.441
   6890.43  650.241
   6899.95  653.052
   6909.48  655.876
   6919.02  658.711
   6928.58  661.558
   6938.15  664.418
   6947.73  667.288
   6957.33  670.171
   6966.94  673.068
   6976.56  675.979
   6986.20  678.905
   6995.85  681.841
   7005.51  684.790
   7015.19  687.752
   7024.88  690.726
   7034.58  693.712
   7044.30  696.712
   7054.03  699.724
   7063.77  702.748
   7073.53  705.786
   7083.30  708.837
   7093.08  711.904
   7102.88  714.982
   7112.69  718.073
   7122.52  721.179
   7132.35  724.296
   7142.21  727.426
   7152.07  730.572
   7161.95  733.728
   7171.84  736.900
   7181.75  740.083
   7191.67  743.281
   7201.60  746.496
   7211.55  749.723
   7221.51  752.965
   7231.49  756.222
   7241.47  759.490
   7251.48  762.774
   7261.49  766.071
   7271.52  769.381
   7281.57  772.707
   7291.62  776.044
   7301.70  779.396
   7311.78  782.765
   7321.88  786.147
   7332.00  789.546
   7342.12  792.958
   7352.26  796.383
   7362.42  799.825
   7372.59  803.280
   7382.77  806.749
   7392.97  810.234
   7403.18  813.732
   7413.41  817.245
   7423.65  820.774
   7433.90  824.320
   7444.17  827.885
   7454.45  831.463
   7464.75  835.056
   7475.06  838.665
   7485.39  842.289
   7495.72  845.927
   7506.08  849.583
   7516.45  853.252
   7526.83  856.938
   7537.23  860.638
   7547.64  864.353
   7558.06  868.089
   7568.50  871.839
   7578.96  875.604
   7589.42  879.387
   7599.91  883.185
   7610.40  887.000
   7620.92  890.829
   7631.44  894.674
   7641.98  898.537
   7652.54  902.414
   7663.11  906.307
   7673.70  910.220
   7684.29  914.150
   7694.91  918.098
   7705.54  922.061
   7716.18  926.041
   7726.84  930.039
   7737.51  934.051
   7748.20  938.081
   7758.90  942.128
   7769.62  946.191
   7780.35  950.272
   7791.10  954.370
   7801.86  958.489
   7812.64  962.627
   7823.43  966.782
   7834.23  970.954
   7845.06  975.145
   7855.89  979.351
   7866.74  983.577
   7877.61  987.819
   7888.49  992.078
   7899.39  996.357
   7910.30  1000.65
   7921.22  1004.96
   7932.17  1009.30
   7943.12  1013.66
   7954.09  1018.03
   7965.08  1022.42
   7976.08  1026.83
   7987.10  1031.25
   7998.13  1035.70
   8009.18  1040.16
   8020.24  1044.65
   8031.32  1049.16
   8042.41  1053.68
   8053.52  1058.22
   8064.65  1062.79
   8075.79  1067.38
   8086.94  1071.98
   8098.11  1076.60
   8109.30  1081.24
   8120.50  1085.91
   8131.71  1090.59
   8142.95  1095.29
   8154.19  1100.01
   8165.46  1104.75
   8176.74  1109.50
   8188.03  1114.29
   8199.34  1119.09
   8210.67  1123.91
   8222.01  1128.76
   8233.36  1133.62
   8244.74  1138.50
   8256.13  1143.41
   8267.53  1148.33
   8278.95  1153.28
   8290.38  1158.24
   8301.83  1163.23
   8313.30  1168.23
   8324.79  1173.27
   8336.28  1178.32
   8347.80  1183.40
   8359.33  1188.50
   8370.88  1193.61
   8382.44  1198.75
   8394.02  1203.91
   8405.61  1209.09
   8417.22  1214.29
   8428.85  1219.52
   8440.49  1224.76
   8452.15  1230.03
   8463.82  1235.33
   8475.51  1240.64
   8487.22  1245.98
   8498.95  1251.34
   8510.68  1256.72
   8522.44  1262.12
   8534.21  1267.55
   8546.00  1273.00
   8557.80  1278.46
   8569.63  1283.96
   8581.46  1289.47
   8593.32  1295.01
   8605.19  1300.58
   8617.07  1306.17
   8628.97  1311.78
   8640.89  1317.42
   8652.83  1323.07
   8664.78  1328.75
   8676.75  1334.46
   8688.73  1340.18
   8700.74  1345.93
   8712.75  1351.71
   8724.79  1357.51
   8736.84  1363.34
   8748.91  1369.19
   8760.99  1375.07
   8773.09  1380.97
   8785.21  1386.90
   8797.35  1392.85
   8809.50  1398.82
   8821.67  1404.82
   8833.85  1410.84
   8846.05  1416.89
   8858.27  1422.96
   8870.51  1429.07
   8882.76  1435.19
   8895.03  1441.35
   8907.32  1447.53
   8919.62  1453.73
   8931.94  1459.96
   8944.28  1466.22
   8956.63  1472.50
   8969.00  1478.80
   8981.39  1485.13
   8993.80  1491.49
   9006.22  1497.87
   9018.66  1504.29
   9031.12  1510.73
   9043.59  1517.19
   9056.08  1523.68
   9068.59  1530.20
   9081.12  1536.75
   9093.66  1543.32
   9106.22  1549.92
   9118.80  1556.54
   9131.40  1563.19
   9144.01  1569.87
   9156.64  1576.57
   9169.29  1583.32
   9181.95  1590.08
   9194.64  1596.88
   9207.34  1603.70
   9220.05  1610.55
   9232.79  1617.43
   9245.54  1624.33
   9258.31  1631.26
   9271.10  1638.22
   9283.91  1645.21
   9296.73  1652.23
   9309.57  1659.28
   9322.43  1666.35
   9335.31  1673.46
   9348.20  1680.59
   9361.12  1687.76
   9374.05  1694.95
   9386.99  1702.17
   9399.96  1709.42
   9412.94  1716.70
   9425.95  1724.00
   9438.97  1731.34
   9452.00  1738.71
   9465.06  1746.11
   9478.13  1753.54
   9491.23  1761.00
   9504.34  1768.50
   9517.46  1776.02
   9530.61  1783.57
   9543.77  1791.16
   9556.96  1798.77
   9570.16  1806.41
   9583.38  1814.08
   9596.61  1821.78
   9609.87  1829.52
   9623.14  1837.31
   9636.44  1845.11
   9649.75  1852.95
   9663.08  1860.83
   9676.42  1868.73
   9689.79  1876.66
   9703.17  1884.63
   9716.58  1892.62
   9730.00  1900.65
   9743.44  1908.71
   9756.89  1916.80
   9770.37  1924.93
   9783.87  1933.08
   9797.38  1941.28
   9810.91  1949.50
   9824.47  1957.75
   9838.04  1966.04
   9851.63  1974.36
   9865.23  1982.71
   9878.86  1991.10
   9892.50  1999.51
   9906.17  2007.96
   9919.85  2016.45
   9933.55  2024.97
   9947.28  2033.54
   9961.02  2042.13
   9974.77  2050.76
   9988.55  2059.42
   10002.3  2068.12
   10016.2  2076.86
   10030.0  2085.64
   10038.1  2090.80
   10046.2  2095.96
   10054.4  2101.15
   10062.5  2106.34
   10070.7  2111.55
   10078.8  2116.77
   10087.0  2122.00
   10095.1  2127.25
   10103.3  2132.51
   10111.5  2137.78
   10119.6  2143.06
   10127.8  2148.36
   10136.0  2153.66
   10144.2  2158.98
   10152.4  2164.31
   10160.7  2169.66
   10168.9  2175.01
   10177.1  2180.38
   10185.3  2185.76
   10193.6  2191.15
   10201.8  2196.55
   10210.1  2201.97
   10218.4  2207.39
   10226.6  2212.83
   10234.9  2218.29
   10243.2  2223.76
   10251.5  2229.24
   10259.8  2234.74
   10268.1  2240.25
   10276.4  2245.77
   10284.7  2251.30
   10293.0  2256.85
   10301.4  2262.41
   10309.7  2267.98
   10318.0  2273.57
   10326.4  2279.16
   10334.7  2284.77
   10343.1  2290.39
   10351.5  2296.03
   10359.9  2301.67
   10368.2  2307.33
   10376.6  2313.01
   10385.0  2318.69
   10393.4  2324.39
   10401.8  2330.10
   10410.3  2335.83
   10418.7  2341.57
   10427.1  2347.33
   10435.6  2353.09
   10444.0  2358.87
   10452.4  2364.67
   10460.9  2370.48
   10469.4  2376.30
   10477.8  2382.13
   10486.3  2387.98
   10494.8  2393.84
   10503.3  2399.71
   10511.8  2405.59
   10520.3  2411.49
   10528.8  2417.40
   10537.3  2423.33
   10545.9  2429.26
   10554.4  2435.21
   10562.9  2441.18
   10571.5  2447.16
   10580.1  2453.15
   10588.6  2459.16
   10597.2  2465.19
   10605.8  2471.23
   10614.3  2477.28
   10622.9  2483.34
   10631.5  2489.42
   10640.1  2495.51
   10648.7  2501.62
   10657.4  2507.73
   10666.0  2513.86
   10674.6  2520.01
   10683.3  2526.17
   10691.9  2532.34
   10700.6  2538.53
   10709.2  2544.73
   10717.9  2550.94
   10726.6  2557.17
   10735.2  2563.41
   10743.9  2569.66
   10752.6  2575.94
   10761.3  2582.23
   10770.0  2588.53
   10778.7  2594.85
   10787.5  2601.18
   10796.2  2607.52
   10804.9  2613.88
   10813.7  2620.25
   10822.4  2626.64
   10831.2  2633.04
   10840.0  2639.45
   10848.7  2645.88
   10857.5  2652.32
   10866.3  2658.78
   10875.1  2665.25
   10883.9  2671.73
   10892.7  2678.23
   10901.5  2684.74
   10910.3  2691.27
   10919.2  2697.81
   10928.0  2704.37
   10936.8  2710.94
   10945.7  2717.54
   10954.5  2724.14
   10963.4  2730.76
   10972.3  2737.39
   10981.2  2744.05
   10990.0  2750.71
   10998.9  2757.38
   11007.8  2764.07
   11016.8  2770.78
   11025.7  2777.50
   11034.6  2784.24
   11043.5  2790.98
   11052.5  2797.75
   11061.4  2804.53
   11070.4  2811.32
   11079.3  2818.13
   11088.3  2824.95
   11097.3  2831.79
   11106.2  2838.65
   11115.2  2845.53
   11124.2  2852.42
   11133.2  2859.33
   11142.2  2866.25
   11151.2  2873.18
   11160.3  2880.13
   11169.3  2887.10
   11178.3  2894.07
   11187.4  2901.07
   11196.4  2908.08
   11205.5  2915.10
   11214.6  2922.14
   11223.6  2929.20
   11232.7  2936.26
   11241.8  2943.35
   11250.9  2950.45
   11260.0  2957.56
   11269.1  2964.69
   11278.3  2971.84
   11287.4  2979.01
   11296.5  2986.20
   11305.7  2993.39
   11314.8  3000.61
   11324.0  3007.83
   11333.1  3015.08
   11342.3  3022.34
   11351.5  3029.61
   11360.7  3036.90
   11369.9  3044.21
   11379.1  3051.53
   11388.3  3058.87
   11397.5  3066.22
   11406.7  3073.59
   11415.9  3080.97
   11425.2  3088.37
   11434.4  3095.78
   11443.7  3103.21
   11452.9  3110.66
   11462.2  3118.13
   11471.5  3125.61
   11480.8  3133.11
   11490.1  3140.63
   11499.4  3148.16
   11508.7  3155.70
   11518.0  3163.26
   11527.3  3170.84
   11536.6  3178.44
   11546.0  3186.04
   11555.3  3193.67
   11564.7  3201.31
   11574.0  3208.97
   11583.4  3216.64
   11592.8  3224.33
   11602.1  3232.03
   11611.5  3239.76
   11620.9  3247.49
   11630.3  3255.24
   11639.7  3263.01
   11649.2  3270.80
   11658.6  3278.62
   11668.0  3286.44
   11677.5  3294.28
   11686.9  3302.14
   11696.4  3310.02
   11705.8  3317.91
   11715.3  3325.81
   11724.8  3333.73
   11734.3  3341.68
   11743.8  3349.63
   11753.3  3357.60
   11762.8  3365.59
   11772.3  3373.59
   11781.8  3381.62
   11791.4  3389.66
   11800.9  3397.71
   11810.5  3405.77
   11820.0  3413.87
   11829.6  3421.97
   11839.2  3430.10
   11848.7  3438.24
   11858.3  3446.41
   11867.9  3454.59
   11877.5  3462.78
   11887.1  3470.99
   11896.8  3479.22
   11906.4  3487.47
   11916.0  3495.73
   11925.7  3504.01
   11935.3  3512.30
   11945.0  3520.62
   11954.6  3528.95
   11964.3  3537.29
   11974.0  3545.65
   11983.7  3554.04
   11993.4  3562.44
   12003.1  3570.85
   12012.8  3579.28
   12022.5  3587.72
   12032.3  3596.20
   12042.0  3604.68
   12051.7  3613.19
   12061.5  3621.71
   12071.3  3630.25
   12081.0  3638.80
   12090.8  3647.38
   12100.6  3655.96
   12110.4  3664.58
   12120.2  3673.20
   12130.0  3681.84
   12139.8  3690.49
   12149.6  3699.17
   12159.5  3707.87
   12169.3  3716.57
   12179.1  3725.30
   12189.0  3734.04
   12198.9  3742.81
   12208.7  3751.59
   12218.6  3760.39
   12228.5  3769.21
   12238.4  3778.06
   12248.3  3786.92
   12258.2  3795.80
   12268.1  3804.69
   12278.1  3813.60
   12288.0  3822.54
   12297.9  3831.49
   12307.9  3840.45
   12317.9  3849.44
   12327.8  3858.44
   12337.8  3867.46
   12347.8  3876.49
   12357.8  3885.55
   12367.8  3894.62
   12377.8  3903.71
   12387.8  3912.82
   12397.8  3921.94
   12407.9  3931.08
   12417.9  3940.25
   12428.0  3949.43
   12438.0  3958.63
   12448.1  3967.85
   12458.2  3977.09
   12468.2  3986.35
   12478.3  3995.62
   12488.4  4004.91
   12498.5  4014.22
   12508.6  4023.55
   12518.8  4032.89
   12528.9  4042.25
   12539.0  4051.63
   12549.2  4061.03
   12559.3  4070.45
   12569.5  4079.88
   12579.7  4089.33
   12589.9  4098.81
   12600.0  4108.29
   12610.2  4117.80
   12620.4  4127.33
   12630.7  4136.88
   12640.9  4146.46
   12651.1  4156.04
   12661.3  4165.65
   12671.6  4175.27
   12681.8  4184.92
   12692.1  4194.58
   12702.4  4204.26
   12712.7  4213.96
   12723.0  4223.68
   12733.2  4233.41
   12743.6  4243.16
   12753.9  4252.94
   12764.2  4262.72
   12774.5  4272.54
   12784.9  4282.36
   12795.2  4292.20
   12805.6  4302.07
   12815.9  4311.95
   12826.3  4321.85
   12836.7  4331.78
   12847.1  4341.72
   12857.5  4351.69
   12867.9  4361.66
   12878.3  4371.66
   12888.7  4381.67
   12899.1  4391.71
   12909.6  4401.77
   12920.0  4411.84
   12930.5  4421.93
   12940.9  4432.03
   12951.4  4442.17
   12961.9  4452.31
   12972.4  4462.47
   12982.9  4472.65
   12993.4  4482.85
   13003.9  4493.08
   13014.4  4503.32
   13024.9  4513.57
   13035.5  4523.86
   13046.0  4534.18
   13056.6  4544.50
   13067.2  4554.85
   13077.7  4565.21
   13088.3  4575.60
   13098.9  4586.00
   13109.5  4596.42
   13120.1  4606.86
   13130.7  4617.32
   13141.4  4627.80
   13152.0  4638.30
   13162.6  4648.81
   13173.3  4659.34
   13184.0  4669.90
   13194.6  4680.47
   13205.3  4691.06
   13216.0  4701.67
   13226.7  4712.30
   13237.4  4722.95
   13248.1  4733.62
   13258.8  4744.31
   13269.6  4755.03
   13280.3  4765.76
   13291.0  4776.51
   13301.8  4787.27
   13312.6  4798.06
   13323.3  4808.87
   13334.1  4819.70
   13344.9  4830.54
   13355.7  4841.40
   13366.5  4852.29
   13377.3  4863.19
   13388.2  4874.10
   13399.0  4885.04
   13409.8  4896.00
   13420.7  4906.98
   13431.5  4917.97
   13442.4  4928.99
   13453.3  4940.02
   13464.2  4951.09
   13475.1  4962.18
   13486.0  4973.28
   13496.9  4984.40
   13507.8  4995.55
   13518.8  5006.70
   13529.7  5017.88
   13540.6  5029.08
   13551.6  5040.30
   13562.6  5051.54
   13573.5  5062.79
   13584.5  5074.06
   13595.5  5085.35
   13606.5  5096.67
   13617.5  5108.00
   13628.6  5119.35
   13639.6  5130.72
   13650.6  5142.12
   13661.7  5153.53
   13672.7  5164.96
   13683.8  5176.41
   13694.9  5187.89
   13705.9  5199.38
   13717.0  5210.89
   13728.1  5222.42
   13739.2  5233.96
   13750.4  5245.54
   13761.5  5257.13
   13772.6  5268.73
   13783.8  5280.36
   13794.9  5292.01
   13806.1  5303.67
   13817.3  5315.35
   13828.4  5327.06
   13839.6  5338.78
   13850.8  5350.53
   13862.0  5362.29
   13873.3  5374.06
   13884.5  5385.86
   13895.7  5397.70
   13907.0  5409.54
   13918.2  5421.41
   13929.5  5433.30
   13940.8  5445.22
   13952.0  5457.14
   13963.3  5469.09
   13974.6  5481.06
   13985.9  5493.04
   13997.3  5505.05
   14008.6  5517.08
   14019.9  5529.12
   14031.3  5541.18
   14042.6  5553.27
   14054.0  5565.37
   14065.4  5577.49
   14076.7  5589.63
   14088.1  5601.79
   14099.5  5613.97
   14111.0  5626.17
   14122.4  5638.39
   14133.8  5650.63
   14145.2  5662.90
   14156.7  5675.18
   14168.1  5687.48
   14179.6  5699.80
   14191.1  5712.15
   14202.6  5724.50
   14214.1  5736.88
   14225.6  5749.27
   14237.1  5761.70
   14248.6  5774.13
   14260.1  5786.58
   14271.7  5799.06
   14283.2  5811.55
   14294.8  5824.07
   14306.3  5836.60
   14317.9  5849.15
   14329.5  5861.72
   14341.1  5874.31
   14352.7  5886.93
   14364.3  5899.57
   14376.0  5912.23
   14387.6  5924.90
   14399.2  5937.61
   14410.9  5950.33
   14422.5  5963.06
   14434.2  5975.81
   14445.9  5988.60
   14457.6  6001.39
   14469.3  6014.20
   14481.0  6027.03
   14492.7  6039.89
   14504.4  6052.76
   14516.2  6065.65
   14527.9  6078.55
   14539.7  6091.48
   14551.5  6104.43
   14563.2  6117.39
   14575.0  6130.38
   14586.8  6143.38
   14598.6  6156.41
   14610.4  6169.46
   14622.3  6182.52
   14634.1  6195.60
   14645.9  6208.70
   14657.8  6221.82
   14669.6  6234.96
   14681.5  6248.12
   14693.4  6261.30
   14705.3  6274.49
   14717.2  6287.71
   14729.1  6300.94
   14741.0  6314.19
   14752.9  6327.47
   14764.9  6340.76
   14776.8  6354.06
   14788.8  6367.39
   14800.8  6380.74
   14812.7  6394.11
   14824.7  6407.50
   14836.7  6420.92
   14848.7  6434.35
   14860.7  6447.81
   14872.8  6461.28
   14884.8  6474.77
   14896.9  6488.28
   14908.9  6501.81
   14921.0  6515.36
   14933.0  6528.92
   14945.1  6542.51
   14957.2  6556.12
   14969.3  6569.74
   14981.4  6583.38
   14993.6  6597.03
   15005.7  6610.75
   15017.8  6624.56
   15030.0  6638.37
   15038.6  6648.18
   15047.3  6658.01
   15055.9  6667.86
   15064.6  6677.71
   15073.2  6687.57
   15081.9  6697.45
   15090.6  6707.33
   15099.2  6717.22
   15107.9  6727.11
   15116.6  6737.03
   15125.3  6746.95
   15134.0  6756.88
   15142.6  6766.82
   15151.3  6776.78
   15160.0  6786.73
   15168.8  6796.70
   15177.5  6806.68
   15186.2  6816.68
   15194.9  6826.67
   15203.6  6836.68
   15212.4  6846.70
   15221.1  6856.73
   15229.9  6866.76
   15238.6  6876.81
   15247.4  6886.87
   15256.1  6896.94
   15264.9  6907.01
   15273.7  6917.09
   15282.4  6927.20
   15291.2  6937.30
   15300.0  6947.42
   15308.8  6957.54
   15317.6  6967.69
   15326.4  6977.84
   15335.2  6987.99
   15344.0  6998.16
   15352.8  7008.35
   15361.6  7018.53
   15370.5  7028.73
   15379.3  7038.94
   15388.1  7049.15
   15397.0  7059.38
   15405.8  7069.61
   15414.7  7079.86
   15423.5  7090.12
   15432.4  7100.37
   15441.3  7110.65
   15450.1  7120.94
   15459.0  7131.23
   15467.9  7141.53
   15476.8  7151.85
   15485.7  7162.17
   15494.6  7172.49
   15503.5  7182.83
   15512.4  7193.19
   15521.3  7203.54
   15530.2  7213.91
   15539.1  7224.28
   15548.1  7234.68
   15557.0  7245.08
   15565.9  7255.49
   15574.9  7265.90
   15583.8  7276.34
   15592.8  7286.78
   15601.7  7297.22
   15610.7  7307.68
   15619.7  7318.15
   15628.6  7328.62
   15637.6  7339.10
   15646.6  7349.61
   15655.6  7360.11
   15664.6  7370.62
   15673.6  7381.14
   15682.6  7391.68
   15691.6  7402.22
   15700.6  7412.76
   15709.6  7423.32
   15718.7  7433.90
   15727.7  7444.47
   15736.7  7455.06
   15745.8  7465.66
   15754.8  7476.26
   15763.9  7486.88
   15772.9  7497.49
   15782.0  7508.14
   15791.1  7518.78
   15800.1  7529.43
   15809.2  7540.09
   15818.3  7550.77
   15827.4  7561.44
   15836.5  7572.13
   15845.6  7582.83
   15854.7  7593.54
   15863.8  7604.26
   15872.9  7614.98
   15882.0  7625.71
   15891.1  7636.46
   15900.3  7647.21
   15909.4  7657.97
   15918.5  7668.75
   15927.7  7679.53
   15936.8  7690.32
   15946.0  7701.11
   15955.2  7711.93
   15964.3  7722.74
   15973.5  7733.56
   15982.7  7744.40
   15991.9  7755.25
   16001.0  7766.10
   16010.2  7776.95
   16019.4  7787.83
   16028.6  7798.71
   16037.8  7809.60
   16047.1  7820.49
   16056.3  7831.40
   16065.5  7842.32
   16074.7  7853.24
   16084.0  7864.17
   16093.2  7875.12
   16102.5  7886.07
   16111.7  7897.02
   16121.0  7907.99
   16130.2  7918.97
   16139.5  7929.96
   16148.8  7940.95
   16158.0  7951.95
   16167.3  7962.97
   16176.6  7973.99
   16185.9  7985.02
   16195.2  7996.06
   16204.5  8007.11
   16213.8  8018.16
   16223.1  8029.22
   16232.5  8040.31
   16241.8  8051.38
   16251.1  8062.47
   16260.5  8073.57
   16269.8  8084.69
   16279.1  8095.80
   16288.5  8106.92
   16297.9  8118.05
   16307.2  8129.20
   16316.6  8140.36
   16326.0  8151.52
   16335.3  8162.70
   16344.7  8173.88
   16354.1  8185.06
   16363.5  8196.26
   16372.9  8207.48
   16382.3  8218.69
   16391.7  8229.91
   16401.2  8241.14
   16410.6  8252.38
   16420.0  8263.63
   16429.4  8274.89
   16438.9  8286.16
   16448.3  8297.43
   16457.8  8308.71
   16467.2  8320.00
   16476.7  8331.31
   16486.2  8342.61
   16495.6  8353.93
   16505.1  8365.25
   16514.6  8376.59
   16524.1  8387.93
   16533.6  8399.27
   16543.1  8410.62
   16552.6  8422.00
   16562.1  8433.37
   16571.6  8444.75
   16581.1  8456.13
   16590.6  8467.54
   16600.2  8478.94
   16609.7  8490.36
   16619.3  8501.79
   16628.8  8513.22
   16638.4  8524.65
   16647.9  8536.09
   16657.5  8547.56
   16667.1  8559.02
   16676.6  8570.49
   16686.2  8581.96
   16695.8  8593.46
   16705.4  8604.95
   16715.0  8616.45
   16724.6  8627.97
   16734.2  8639.49
   16743.8  8651.01
   16753.4  8662.54
   16763.1  8674.08
   16772.7  8685.64
   16782.3  8697.20
   16792.0  8708.76
   16801.6  8720.34
   16811.3  8731.92
   16820.9  8743.50
   16830.6  8755.10
   16840.3  8766.71
   16849.9  8778.32
   16859.6  8789.94
   16869.3  8801.57
   16879.0  8813.20
   16888.7  8824.84
   16898.4  8836.49
   16908.1  8848.16
   16917.8  8859.82
   16927.5  8871.49
   16937.3  8883.16
   16947.0  8894.86
   16956.7  8906.55
   16966.5  8918.25
   16976.2  8929.96
   16986.0  8941.69
   16995.7  8953.41
   17005.5  8965.14
   17015.3  8976.87
   17025.0  8988.63
   17034.8  9000.38
   17044.6  9012.14
   17054.4  9023.92
   17064.2  9035.70
   17074.0  9047.48
   17083.8  9059.27
   17093.6  9071.07
   17103.5  9082.88
   17113.3  9094.69
   17123.1  9106.51
   17133.0  9118.35
   17142.8  9130.18
   17152.6  9142.01
   17162.5  9153.86
   17172.4  9165.73
   17182.2  9177.59
   17192.1  9189.46
   17202.0  9201.34
   17211.9  9213.23
   17221.7  9225.12
   17231.6  9237.01
   17241.5  9248.93
   17251.4  9260.84
   17261.4  9272.76
   17271.3  9284.68
   17281.2  9296.63
   17291.1  9308.56
   17301.1  9320.51
   17311.0  9332.46
   17320.9  9344.43
   17330.9  9356.40
   17340.9  9368.37
   17350.8  9380.37
   17360.8  9392.35
   17370.8  9404.34
   17380.7  9416.34
   17390.7  9428.36
   17400.7  9440.36
   17410.7  9452.37
   17420.7  9464.39
   17430.7  9476.43
   17440.7  9488.46
   17450.8  9500.50
   17460.8  9512.55
   17470.8  9524.61
   17480.9  9536.67
   17490.9  9548.73
   17500.9  9560.80
   17511.0  9572.89
   17521.1  9584.98
   17531.1  9597.07
   17541.2  9609.18
   17551.3  9621.28
   17561.4  9633.39
   17571.5  9645.50
   17581.6  9657.64
   17591.7  9669.77
   17601.8  9681.91
   17611.9  9694.05
   17622.0  9706.21
   17632.1  9718.36
   17642.2  9730.52
   17652.4  9742.70
   17662.5  9754.87
   17672.7  9767.05
   17682.8  9779.24
   17693.0  9791.45
   17703.1  9803.64
   17713.3  9815.85
   17723.5  9828.06
   17733.7  9840.29
   17743.9  9852.51
   17754.1  9864.74
   17764.3  9876.98
   17774.5  9889.23
   17784.7  9901.48
   17794.9  9913.73
   17805.1  9925.99
   17815.4  9938.27
   17825.6  9950.53
   17835.8  9962.81
   17846.1  9975.11
   17856.3  9987.39
   17866.6  9999.69
   17876.9  10012.0
   17887.1  10024.3
   17897.4  10036.6
   17907.7  10048.9
   17918.0  10061.3
   17928.3  10073.6
   17938.6  10085.9
   17948.9  10098.3
   17959.2  10110.6
   17969.5  10123.0
   17979.8  10135.3
   17990.2  10147.7
   18000.5  10160.0
   18010.8  10172.4
   18021.2  10184.7
   18031.5  10197.1
   18041.9  10209.5
   18052.3  10221.9
   18062.6  10234.3
   18073.0  10246.7
   18083.4  10259.1
   18093.8  10271.5
   18104.2  10283.9
   18114.6  10296.3
   18125.0  10308.7
   18135.4  10321.2
   18145.8  10333.6
   18156.2  10346.0
   18166.7  10358.5
   18177.1  10370.9
   18187.6  10383.4
   18198.0  10395.9
   18208.5  10408.3
   18218.9  10420.8
   18229.4  10433.2
   18239.9  10445.7
   18250.3  10458.2
   18260.8  10470.7
   18271.3  10483.2
   18281.8  10495.7
   18292.3  10508.2
   18302.8  10520.7
   18313.3  10533.2
   18323.9  10545.7
   18334.4  10558.2
   18344.9  10570.7
   18355.5  10583.2
   18366.0  10595.8
   18376.6  10608.3
   18387.1  10620.8
   18397.7  10633.4
   18408.3  10645.9
   18418.8  10658.5
   18429.4  10671.0
   18440.0  10683.6
   18450.6  10696.2
   18461.2  10708.7
   18471.8  10721.3
   18482.4  10733.9
   18493.0  10746.5
   18503.7  10759.0
   18514.3  10771.6
   18524.9  10784.2
   18535.6  10796.8
   18546.2  10809.4
   18556.9  10822.0
   18567.5  10834.6
   18578.2  10847.2
   18588.9  10859.8
   18599.6  10872.5
   18610.2  10885.1
   18620.9  10897.7
   18631.6  10910.3
   18642.3  10923.0
   18653.1  10935.6
   18663.8  10948.2
   18674.5  10960.9
   18685.2  10973.5
   18696.0  10986.2
   18706.7  10998.8
   18717.4  11011.5
   18728.2  11024.2
   18739.0  11036.8
   18749.7  11049.5
   18760.5  11062.2
   18771.3  11074.9
   18782.1  11087.5
   18792.9  11100.2
   18803.6  11112.9
   18814.5  11125.6
   18825.3  11138.3
   18836.1  11151.0
   18846.9  11163.7
   18857.7  11176.4
   18868.6  11189.1
   18879.4  11201.8
   18890.2  11214.5
   18901.1  11227.2
   18912.0  11239.9
   18922.8  11252.6
   18933.7  11265.3
   18944.6  11278.1
   18955.5  11290.8
   18966.4  11303.5
   18977.2  11316.2
   18988.2  11329.0
   18999.1  11341.7
   19010.0  11354.5
   19020.9  11367.2
   19031.8  11379.9
   19042.8  11392.7
   19053.7  11405.4
   19064.6  11418.2
   19075.6  11430.9
   19086.6  11443.7
   19097.5  11456.5
   19108.5  11469.2
   19119.5  11482.0
   19130.5  11494.8
   19141.5  11507.6
   19152.4  11520.3
   19163.5  11533.1
   19174.5  11545.8
   19185.5  11558.6
   19196.5  11571.4
   19207.5  11584.2
   19218.6  11596.9
   19229.6  11609.7
   19240.7  11622.5
   19251.7  11635.3
   19262.8  11648.1
   19273.8  11660.9
   19284.9  11673.7
   19296.0  11686.5
   19307.1  11699.3
   19318.2  11712.1
   19329.3  11724.9
   19340.4  11737.7
   19351.5  11750.5
   19362.6  11763.3
   19373.7  11776.1
   19384.9  11788.9
   19396.0  11801.7
   19407.1  11814.5
   19418.3  11827.4
   19429.4  11840.2
   19440.6  11853.0
   19451.8  11865.8
   19463.0  11878.6
   19474.1  11891.4
   19485.3  11904.3
   19496.5  11917.1
   19507.7  11929.9
   19518.9  11942.7
   19530.1  11955.5
   19541.4  11968.3
   19552.6  11981.2
   19563.8  11994.0
   19575.1  12006.8
   19586.3  12019.6
   19597.6  12032.5
   19608.8  12045.3
   19620.1  12058.1
   19631.4  12071.0
   19642.6  12083.8
   19653.9  12096.6
   19665.2  12109.5
   19676.5  12122.3
   19687.8  12135.2
   19699.1  12148.0
   19710.4  12160.9
   19721.8  12173.7
   19733.1  12186.5
   19744.4  12199.4
   19755.8  12212.2
   19767.1  12225.1
   19778.5  12236.3
   19789.9  12247.6
   19801.2  12258.8
   19812.6  12270.0
   19824.0  12281.2
   19835.4  12292.4
   19846.8  12303.7
   19858.2  12314.9
   19869.6  12326.1
   19881.0  12337.3
   19892.4  12348.5
   19903.8  12359.8
   19915.3  12371.0
   19926.7  12382.2
   19938.2  12393.4
   19949.6  12404.6
   19961.1  12415.9
   19972.6  12427.1
   19984.0  12438.3
   19995.5  12449.5
   20007.0  12461.0
   20018.5  12472.5
   20030.0  12484.1
   20038.9  12493.0
   20047.9  12502.0
   20056.8  12510.9
   20065.7  12519.9
   20074.7  12528.9
   20083.6  12537.8
   20092.6  12547.8
   20101.5  12558.3
   20110.5  12568.9
   20119.5  12579.4
   20128.4  12590.0
   20137.4  12600.6
   20146.4  12611.1
   20155.4  12621.7
   20164.4  12632.3
   20173.3  12642.8
   20182.3  12653.4
   20191.3  12664.0
   20200.3  12674.6
   20209.3  12685.2
   20218.3  12695.7
   20227.4  12706.3
   20236.4  12716.9
   20245.4  12727.5
   20254.4  12738.0
   20263.5  12748.6
   20272.5  12759.2
   20281.5  12769.8
   20290.6  12780.4
   20299.6  12791.0
   20308.7  12801.6
   20317.7  12812.1
   20326.8  12822.7
   20335.8  12833.3
   20344.9  12843.9
   20354.0  12854.5
   20363.0  12865.1
   20372.1  12875.7
   20381.2  12886.3
   20390.3  12896.9
   20399.4  12907.5
   20408.5  12918.0
   20417.6  12928.6
   20426.7  12939.2
   20435.8  12949.8
   20444.9  12960.4
   20454.0  12971.0
   20463.1  12981.6
   20472.2  12992.2
   20481.4  13002.8
   20490.5  13013.4
   20499.6  13024.0
   20508.8  13034.5
   20517.9  13045.1
   20527.1  13055.7
   20536.2  13066.3
   20545.4  13076.9
   20554.5  13087.5
   20563.7  13098.1
   20572.9  13108.7
   20582.0  13119.3
   20591.2  13129.9
   20600.4  13140.5
   20609.6  13151.1
   20618.8  13161.7
   20627.9  13172.3
   20637.1  13182.9
   20646.3  13193.5
   20655.5  13204.1
   20664.8  13214.7
   20674.0  13225.3
   20683.2  13235.9
   20692.4  13246.5
   20701.6  13257.1
   20710.8  13267.7
   20720.1  13278.3
   20729.3  13288.9
   20738.6  13299.5
   20747.8  13310.1
   20757.1  13320.7
   20766.3  13331.3
   20775.6  13341.9
   20784.8  13352.5
   20794.1  13363.1
   20803.4  13373.7
   20812.6  13384.3
   20821.9  13394.9
   20831.2  13405.5
   20840.5  13416.1
   20849.8  13426.7
   20859.1  13437.3
   20868.4  13447.8
   20877.7  13458.5
   20887.0  13469.0
   20896.3  13479.6
   20905.6  13490.2
   20914.9  13500.8
   20924.2  13511.4
   20933.6  13522.0
   20942.9  13532.6
   20952.2  13543.2
   20961.6  13553.8
   20970.9  13564.4
   20980.3  13575.0
   20989.6  13585.6
   20999.0  13596.2
   21008.3  13606.8
   21017.7  13617.4
   21027.1  13627.9
   21036.5  13638.5
   21045.8  13649.1
   21055.2  13659.7
   21064.6  13670.3
   21074.0  13680.9
   21083.4  13691.5
   21092.8  13702.1
   21102.2  13712.7
   21111.6  13723.2
   21121.0  13733.8
   21130.4  13744.4
   21139.8  13755.0
   21149.3  13765.5
   21158.7  13776.1
   21168.1  13786.7
   21177.6  13797.3
   21187.0  13807.9
   21196.4  13818.4
   21205.9  13829.0
   21215.3  13839.6
   21224.8  13850.2
   21234.3  13860.7
   21243.7  13871.3
   21253.2  13881.9
   21262.7  13892.5
   21272.2  13903.0
   21281.6  13913.6
   21291.1  13924.2
   21300.6  13934.8
   21310.1  13945.3
   21319.6  13955.9
   21329.1  13966.5
   21338.6  13977.0
   21348.1  13987.6
   21357.7  13998.2
   21367.2  14008.7
   21376.7  14019.3
   21386.2  14029.9
   21395.8  14040.4
   21405.3  14051.0
   21414.8  14061.6
   21424.4  14072.1
   21433.9  14082.7
   21443.5  14093.2
   21453.1  14103.8
   21462.6  14114.3
   21472.2  14124.9
   21481.8  14135.4
   21491.3  14145.9
   21500.9  14156.5
   21510.5  14167.0
   21520.1  14177.6
   21529.7  14188.1
   21539.3  14198.7
   21548.9  14209.2
   21558.5  14219.8
   21568.1  14230.3
   21577.7  14240.8
   21587.3  14251.4
   21597.0  14261.9
   21606.6  14272.4
   21616.2  14283.0
   21625.9  14293.5
   21635.5  14304.0
   21645.1  14314.6
   21654.8  14325.1
   21664.4  14335.6
   21674.1  14346.1
   21683.8  14356.7
   21693.4  14367.2
   21703.1  14377.7
   21712.8  14388.2
   21722.5  14398.8
   21732.1  14409.3
   21741.8  14419.8
   21751.5  14430.3
   21761.2  14440.8
   21770.9  14451.3
   21780.6  14461.9
   21790.3  14472.4
   21800.0  14482.9
   21809.8  14493.4
   21819.5  14503.9
   21829.2  14514.4
   21838.9  14524.9
   21848.7  14535.4
   21858.4  14545.9
   21868.2  14556.4
   21877.9  14566.8
   21887.7  14577.3
   21897.4  14587.8
   21907.2  14598.3
   21916.9  14608.8
   21926.7  14619.3
   21936.5  14629.8
   21946.3  14640.2
   21956.1  14650.7
   21965.8  14661.2
   21975.6  14671.7
   21985.4  14682.2
   21995.2  14692.6
   22005.0  14703.1
   22014.8  14713.6
   22024.7  14724.1
   22034.5  14734.5
   22044.3  14745.0
   22054.1  14755.5
   22064.0  14765.9
   22073.8  14776.4
   22083.6  14786.8
   22093.5  14797.3
   22103.3  14807.8
   22113.2  14818.2
   22123.0  14828.6
   22132.9  14839.1
   22142.8  14849.5
   22152.6  14860.0
   22162.5  14870.4
   22172.4  14880.8
   22182.3  14891.3
   22192.2  14901.7
   22202.1  14912.1
   22212.0  14922.6
   22221.9  14933.0
   22231.8  14943.4
   22241.7  14953.8
   22251.6  14964.3
   22261.5  14974.7
   22271.4  14985.1
   22281.4  14995.5
   22291.3  15005.9
   22301.2  15016.3
   22311.2  15026.7
   22321.1  15037.1
   22331.1  15047.5
   22341.0  15057.9
   22351.0  15068.3
   22360.9  15078.7
   22370.9  15089.1
   22380.9  15099.5
   22390.9  15109.9
   22400.8  15120.3
   22410.8  15130.7
   22420.8  15141.1
   22430.8  15151.5
   22440.8  15161.8
   22450.8  15172.2
   22460.8  15182.6
   22470.8  15193.0
   22480.9  15203.3
   22490.9  15213.7
   22500.9  15224.1
   22510.9  15234.4
   22521.0  15244.8
   22531.0  15255.1
   22541.1  15265.5
   22551.1  15275.8
   22561.2  15286.2
   22571.2  15296.5
   22581.3  15306.8
   22591.3  15317.2
   22601.4  15327.5
   22611.5  15337.8
   22621.6  15348.2
   22631.7  15358.5
   22641.7  15368.8
   22651.8  15379.1
   22661.9  15389.5
   22672.0  15399.8
   22682.1  15410.1
   22692.3  15420.4
   22702.4  15430.7
   22712.5  15441.0
   22722.6  15451.3
   22732.7  15461.6
   22742.9  15471.9
   22753.0  15482.2
   22763.2  15492.5
   22773.3  15502.8
   22783.5  15513.1
   22793.6  15523.4
   22803.8  15533.7
   22813.9  15544.0
   22824.1  15554.3
   22834.3  15564.5
   22844.5  15574.8
   22854.7  15585.1
   22864.8  15595.3
   22875.0  15605.6
   22885.2  15615.8
   22895.4  15626.1
   22905.6  15636.3
   22915.9  15646.6
   22926.1  15656.8
   22936.3  15667.1
   22946.5  15677.3
   22956.7  15687.5
   22967.0  15697.8
   22977.2  15708.0
   22987.5  15718.2
   22997.7  15728.4
   23008.0  15738.7
   23018.2  15748.9
   23028.5  15759.1
   23038.7  15769.3
   23049.0  15779.5
   23059.3  15789.7
   23069.6  15799.9
   23079.8  15810.1
   23090.1  15820.3
   23100.4  15830.5
   23110.7  15840.7
   23121.0  15850.9
   23131.3  15861.1
   23141.7  15871.3
   23152.0  15881.4
   23162.3  15891.6
   23172.6  15901.8
   23182.9  15912.0
   23193.3  15922.1
   23203.6  15932.3
   23214.0  15942.5
   23224.3  15952.6
   23234.7  15962.7
   23245.0  15972.9
   23255.4  15983.0
   23265.8  15993.2
   23276.1  16003.3
   23286.5  16013.4
   23296.9  16023.6
   23307.3  16033.7
   23317.7  16043.8
   23328.0  16053.9
   23338.4  16064.0
   23348.9  16074.1
   23359.3  16084.2
   23369.7  16094.3
   23380.1  16104.4
   23390.5  16114.5
   23400.9  16124.6
   23411.4  16134.7
   23421.8  16144.8
   23432.2  16154.9
   23442.7  16165.0
   23453.1  16175.0
   23463.6  16185.1
   23474.1  16195.2
   23484.5  16205.3
   23495.0  16215.3
   23505.5  16225.4
   23515.9  16235.4
   23526.4  16245.5
   23536.9  16255.5
   23547.4  16265.6
   23557.9  16275.6
   23568.4  16285.6
   23578.9  16295.7
   23589.4  16305.7
   23599.9  16315.7
   23610.5  16325.8
   23621.0  16335.8
   23631.5  16345.8
   23642.1  16355.8
   23652.6  16365.8
   23663.1  16375.8
   23673.7  16385.8
   23684.2  16395.8
   23694.8  16405.7
   23705.4  16415.7
   23715.9  16425.7
   23726.5  16435.7
   23737.1  16445.7
   23747.7  16455.6
   23758.2  16465.6
   23768.8  16475.6
   23779.4  16485.5
   23790.0  16495.5
   23800.6  16505.4
   23811.2  16515.4
   23821.9  16525.3
   23832.5  16535.2
   23843.1  16545.2
   23853.7  16555.1
   23864.4  16565.0
   23875.0  16575.0
   23885.7  16584.9
   23896.3  16594.8
   23907.0  16604.7
   23917.6  16614.6
   23928.3  16624.5
   23938.9  16634.4
   23949.6  16644.3
   23960.3  16654.2
   23971.0  16664.1
   23981.7  16674.0
   23992.3  16683.8
   24003.0  16693.7
   24013.7  16703.6
   24024.4  16713.4
   24035.2  16723.3
   24045.9  16733.1
   24056.6  16743.0
   24067.3  16752.8
   24078.0  16762.7
   24088.8  16772.5
   24099.5  16782.3
   24110.3  16792.2
   24121.0  16802.0
   24131.8  16811.8
   24142.5  16821.6
   24153.3  16831.4
   24164.0  16841.2
   24174.8  16851.0
   24185.6  16860.8
   24196.4  16870.6
   24207.2  16880.4
   24218.0  16890.2
   24228.7  16900.0
   24239.5  16909.8
   24250.4  16919.5
   24261.2  16929.3
   24272.0  16939.1
   24282.8  16948.8
   24293.6  16958.6
   24304.5  16968.4
   24315.3  16978.1
   24326.1  16987.8
   24337.0  16997.6
   24347.8  17007.3
   24358.7  17017.0
   24369.5  17026.8
   24380.4  17036.5
   24391.3  17046.2
   24402.1  17055.9
   24413.0  17065.6
   24423.9  17075.3
   24434.8  17085.0
   24445.7  17094.7
   24456.6  17104.3
   24467.5  17114.0
   24478.4  17123.7
   24489.3  17133.3
   24500.2  17143.0
   24511.1  17152.7
   24522.1  17162.3
   24533.0  17172.0
   24543.9  17181.6
   24554.9  17191.3
   24565.8  17200.9
   24576.8  17210.5
   24587.7  17220.2
   24598.7  17229.8
   24609.7  17239.4
   24620.6  17249.0
   24631.6  17258.6
   24642.6  17268.2
   24653.6  17277.8
   24664.6  17287.4
   24675.6  17297.0
   24686.6  17306.6
   24697.6  17316.2
   24708.6  17325.8
   24719.6  17335.3
   24730.6  17344.9
   24741.6  17354.5
   24752.7  17364.0
   24763.7  17373.6
   24774.7  17383.1
   24785.8  17392.7
   24796.8  17402.2
   24807.9  17411.7
   24818.9  17421.3
   24830.0  17430.8
   24841.1  17440.3
   24852.1  17449.8
   24863.2  17459.3
   24874.3  17468.8
   24885.4  17478.3
   24896.5  17487.8
   24907.6  17497.2
   24918.7  17506.7
   24929.8  17516.2
   24940.9  17525.7
   24952.0  17535.1
   24963.2  17544.6
   24974.3  17554.1
   24985.4  17563.5
   24996.6  17573.0
   25007.7  17582.4
   25018.8  17591.8
   25030.0  17601.3
   25039.1  17608.9
   25048.1  17616.6
   25057.2  17624.2
   25066.3  17631.9
   25075.4  17639.5
   25084.5  17647.2
   25093.5  17654.8
   25102.6  17662.5
   25111.7  17670.1
   25120.8  17677.7
   25129.9  17685.4
   25139.0  17693.0
   25148.1  17700.6
   25157.3  17708.2
   25166.4  17715.8
   25175.5  17723.4
   25184.6  17731.0
   25193.7  17738.6
   25202.9  17746.2
   25212.0  17753.8
   25221.1  17761.4
   25230.3  17769.0
   25239.4  17776.6
   25248.6  17784.2
   25257.7  17791.7
   25266.9  17799.3
   25276.0  17806.9
   25285.2  17814.4
   25294.3  17822.0
   25303.5  17829.6
   25312.7  17837.1
   25321.8  17844.7
   25331.0  17852.2
   25340.2  17859.8
   25349.4  17867.3
   25358.5  17874.9
   25367.7  17882.4
   25376.9  17889.9
   25386.1  17897.5
   25395.3  17905.0
   25404.5  17912.5
   25413.7  17920.0
   25422.9  17927.5
   25432.1  17935.1
   25441.4  17942.6
   25450.6  17950.1
   25459.8  17957.6
   25469.0  17965.1
   25478.2  17972.6
   25487.5  17980.0
   25496.7  17987.5
   25506.0  17995.0
   25515.2  18002.5
   25524.4  18010.0
   25533.7  18017.5
   25542.9  18024.9
   25552.2  18032.4
   25561.4  18039.9
   25570.7  18047.3
   25580.0  18054.7
   25589.2  18062.2
   25598.5  18069.6
   25607.8  18077.1
   25617.1  18084.5
   25626.3  18092.0
   25635.6  18099.4
   25644.9  18106.8
   25654.2  18114.2
   25663.5  18121.6
   25672.8  18129.1
   25682.1  18136.5
   25691.4  18143.9
   25700.7  18151.3
   25710.0  18158.7
   25719.3  18166.1
   25728.7  18173.5
   25738.0  18180.9
   25747.3  18188.2
   25756.6  18195.6
   25766.0  18203.0
   25775.3  18210.4
   25784.6  18217.7
   25794.0  18225.1
   25803.3  18232.5
   25812.7  18239.8
   25822.0  18247.2
   25831.4  18254.5
   25840.7  18261.9
   25850.1  18269.2
   25859.5  18276.6
   25868.8  18283.9
   25878.2  18291.2
   25887.6  18298.6
   25897.0  18305.9
   25906.4  18313.2
   25915.7  18320.6
   25925.1  18327.9
   25934.5  18335.2
   25943.9  18342.5
   25953.3  18349.8
   25962.7  18357.1
   25972.1  18364.4
   25981.5  18371.7
   25991.0  18379.0
   26000.4  18386.3
   26009.8  18393.5
   26019.2  18400.8
   26028.6  18408.1
   26038.1  18415.4
   26047.5  18422.6
   26056.9  18429.9
   26066.4  18437.1
   26075.8  18444.4
   26085.3  18451.6
   26094.7  18458.9
   26104.2  18466.1
   26113.6  18473.3
   26123.1  18480.6
   26132.6  18487.8
   26142.0  18495.0
   26151.5  18502.3
   26161.0  18509.5
   26170.5  18516.7
   26179.9  18523.9
   26189.4  18531.1
   26198.9  18538.3
   26208.4  18545.5
   26217.9  18552.7
   26227.4  18559.9
   26236.9  18567.1
   26246.4  18574.3
   26255.9  18581.5
   26265.4  18588.6
   26274.9  18595.8
   26284.5  18603.0
   26294.0  18610.1
   26303.5  18617.3
   26313.0  18624.5
   26322.6  18631.6
   26332.1  18638.8
   26341.7  18645.9
   26351.2  18653.0
   26360.7  18660.2
   26370.3  18667.3
   26379.9  18674.5
   26389.4  18681.6
   26399.0  18688.7
   26408.5  18695.8
   26418.1  18702.9
   26427.7  18710.0
   26437.2  18717.1
   26446.8  18724.2
   26456.4  18731.3
   26466.0  18738.4
   26475.6  18745.5
   26485.2  18752.6
   26494.8  18759.6
   26504.4  18766.7
   26514.0  18773.8
   26523.6  18780.8
   26533.2  18787.9
   26542.8  18795.0
   26552.4  18802.0
   26562.0  18809.1
   26571.7  18816.1
   26581.3  18823.1
   26590.9  18830.2
   26600.6  18837.2
   26610.2  18844.2
   26619.8  18851.3
   26629.5  18858.3
   26639.1  18865.3
   26648.8  18872.3
   26658.4  18879.3
   26668.1  18886.3
   26677.8  18893.3
   26687.4  18900.3
   26697.1  18907.3
   26706.8  18914.3
   26716.4  18921.3
   26726.1  18928.3
   26735.8  18935.3
   26745.5  18942.3
   26755.2  18949.2
   26764.9  18956.2
   26774.6  18963.2
   26784.3  18970.1
   26794.0  18977.1
   26803.7  18984.0
   26813.4  18991.0
   26823.1  18997.9
   26832.8  19004.8
   26842.5  19011.8
   26852.3  19018.7
   26862.0  19025.6
   26871.7  19032.5
   26881.5  19039.4
   26891.2  19046.3
   26901.0  19053.3
   26910.7  19060.2
   26920.5  19067.1
   26930.2  19073.9
   26940.0  19080.8
   26949.7  19087.7
   26959.5  19094.6
   26969.3  19101.5
   26979.0  19108.4
   26988.8  19115.2
   26998.6  19122.1
   27008.4  19129.0
   27018.1  19135.8
   27027.9  19142.7
   27037.7  19149.5
   27047.5  19156.3
   27057.3  19163.2
   27067.1  19170.0
   27076.9  19176.8
   27086.7  19183.7
   27096.6  19190.5
   27106.4  19197.3
   27116.2  19204.1
   27126.0  19211.0
   27135.8  19217.8
   27145.7  19224.6
   27155.5  19231.4
   27165.4  19238.2
   27175.2  19245.0
   27185.0  19251.7
   27194.9  19258.5
   27204.7  19265.3
   27214.6  19272.1
   27224.5  19278.8
   27234.3  19285.6
   27244.2  19292.4
   27254.1  19299.1
   27263.9  19305.9
   27273.8  19312.6
   27283.7  19319.4
   27293.6  19326.1
   27303.5  19332.8
   27313.4  19339.6
   27323.3  19346.3
   27333.2  19353.0
   27343.1  19359.7
   27353.0  19366.4
   27362.9  19373.1
   27372.8  19379.8
   27382.7  19386.5
   27392.6  19393.2
   27402.6  19399.9
   27412.5  19406.6
   27422.4  19413.3
   27432.3  19420.0
   27442.3  19426.6
   27452.2  19433.3
   27462.2  19440.0
   27472.1  19446.6
   27482.1  19453.3
   27492.0  19459.9
   27502.0  19466.6
   27512.0  19473.2
   27521.9  19479.9
   27531.9  19486.5
   27541.9  19493.1
   27551.9  19499.8
   27561.8  19506.4
   27571.8  19513.0
   27581.8  19519.6
   27591.8  19526.2
   27601.8  19532.8
   27611.8  19539.5
   27621.8  19546.1
   27631.8  19552.6
   27641.8  19559.2
   27651.8  19565.8
   27661.9  19572.4
   27671.9  19579.0
   27681.9  19585.6
   27691.9  19592.1
   27702.0  19598.7
   27712.0  19605.2
   27722.0  19611.8
   27732.1  19618.3
   27742.1  19624.9
   27752.2  19631.4
   27762.2  19637.9
   27772.3  19644.5
   27782.4  19651.0
   27792.4  19657.5
   27802.5  19664.0
   27812.6  19670.6
   27822.7  19677.1
   27832.7  19683.6
   27842.8  19690.1
   27852.9  19696.6
   27863.0  19703.1
   27873.1  19709.5
   27883.2  19716.0
   27893.3  19722.5
   27903.4  19729.0
   27913.5  19735.4
   27923.6  19741.9
   27933.7  19748.4
   27943.9  19754.8
   27954.0  19761.3
   27964.1  19767.7
   27974.2  19774.2
   27984.4  19780.6
   27994.5  19787.1
   28004.7  19793.5
   28014.8  19799.9
   28025.0  19806.3
   28035.1  19812.8
   28045.3  19819.2
   28055.4  19825.6
   28065.6  19832.0
   28075.8  19838.4
   28085.9  19844.8
   28096.1  19851.2
   28106.3  19857.6
   28116.5  19864.0
   28126.7  19870.3
   28136.8  19876.7
   28147.0  19883.1
   28157.2  19889.4
   28167.4  19895.8
   28177.6  19902.2
   28187.9  19908.5
   28198.1  19914.8
   28208.3  19921.2
   28218.5  19927.5
   28228.7  19933.8
   28239.0  19940.2
   28249.2  19946.5
   28259.4  19952.8
   28269.7  19959.1
   28279.9  19965.4
   28290.2  19971.7
   28300.4  19978.0
   28310.7  19984.3
   28320.9  19990.6
   28331.2  19996.9
   28341.4  20003.2
   28351.7  20009.5
   28362.0  20015.8
   28372.3  20022.0
   28382.5  20028.3
   28392.8  20034.6
   28403.1  20040.8
   28413.4  20047.1
   28423.7  20053.3
   28434.0  20059.6
   28444.3  20065.8
   28454.6  20072.0
   28464.9  20078.3
   28475.2  20084.5
   28485.5  20090.7
   28495.9  20096.9
   28506.2  20103.1
   28516.5  20109.4
   28526.8  20115.5
   28537.2  20121.7
   28547.5  20127.9
   28557.9  20134.1
   28568.2  20140.3
   28578.6  20146.5
   28588.9  20152.7
   28599.3  20158.9
   28609.6  20165.0
   28620.0  20171.2
   28630.4  20177.3
   28640.7  20183.5
   28651.1  20189.6
   28661.5  20195.8
   28671.9  20201.9
   28682.3  20208.1
   28692.7  20214.2
   28703.1  20220.3
   28713.5  20226.4
   28723.9  20232.5
   28734.3  20238.7
   28744.7  20244.8
   28755.1  20250.9
   28765.5  20257.0
   28775.9  20263.1
   28786.4  20269.2
   28796.8  20275.2
   28807.2  20281.3
   28817.7  20287.4
   28828.1  20293.5
   28838.5  20299.5
   28849.0  20305.6
   28859.4  20311.7
   28869.9  20317.7
   28880.4  20323.8
   28890.8  20329.8
   28901.3  20335.9
   28911.8  20341.9
   28922.2  20347.9
   28932.7  20354.0
   28943.2  20360.0
   28953.7  20366.0
   28964.2  20372.0
   28974.7  20378.0
   28985.2  20384.0
   28995.7  20390.0
   29006.2  20396.0
   29016.7  20402.0
   29027.2  20408.0
   29037.7  20414.0
   29048.2  20420.0
   29058.8  20425.9
   29069.3  20431.9
   29079.8  20437.9
   29090.4  20443.8
   29100.9  20449.8
   29111.4  20455.7
   29122.0  20461.7
   29132.5  20467.6
   29143.1  20473.6
   29153.6  20479.5
   29164.2  20485.4
   29174.8  20491.3
   29185.3  20497.2
   29195.9  20503.2
   29206.5  20509.1
   29217.1  20515.0
   29227.7  20520.9
   29238.3  20526.8
   29248.8  20532.7
   29259.4  20538.5
   29270.0  20544.4
   29280.7  20550.3
   29291.3  20556.2
   29301.9  20562.0
   29312.5  20567.9
   29323.1  20573.8
   29333.7  20579.6
   29344.4  20585.5
   29355.0  20591.3
   29365.6  20597.2
   29376.3  20603.0
   29386.9  20608.8
   29397.6  20614.7
   29408.2  20620.5
   29418.9  20626.3
   29429.5  20632.1
   29440.2  20637.9
   29450.9  20643.7
   29461.5  20649.5
   29472.2  20655.3
   29482.9  20661.1
   29493.6  20666.9
   29504.2  20672.7
   29514.9  20678.5
   29525.6  20684.2
   29536.3  20690.0
   29547.0  20695.8
   29557.7  20701.5
   29568.4  20707.3
   29579.2  20713.0
   29589.9  20718.8
   29600.6  20724.5
   29611.3  20730.2
   29622.0  20736.0
   29632.8  20741.7
   29643.5  20747.4
   29654.3  20753.1
   29665.0  20758.8
   29675.7  20764.5
   29686.5  20770.2
   29697.3  20775.9
   29708.0  20781.6
   29718.8  20787.3
   29729.5  20793.0
   29740.3  20798.7
   29751.1  20804.4
   29761.9  20810.0
   29772.7  20815.7
   29783.4  20821.4
   29794.2  20827.0
   29805.0  20832.7
   29815.8  20838.3
   29826.6  20844.0
   29837.4  20849.6
   29848.2  20855.2
   29859.1  20860.9
   29869.9  20866.5
   29880.7  20872.1
   29891.5  20877.7
   29902.4  20883.3
   29913.2  20888.9
   29924.0  20894.5
   29934.9  20900.1
   29945.7  20905.7
   29956.6  20911.3
   29967.4  20916.9
   29978.3  20922.5
   29989.1  20928.1
   30000.0  20933.6
