 Li Density=0.534, Angle=90.deg
 Photon Energy (eV), Atten Length (microns)
   30.0000  0.805014
   30.3089  0.821400
   30.6210  0.837028
   30.9363  0.852703
   31.2548  0.868507
   31.5766  0.884601
   31.9018  0.900994
   32.2302  0.917691
   32.5621  0.934699
   32.8974  0.952021
   33.2361  0.969660
   33.5783  0.987628
   33.9241  1.00593
   34.2734  1.02458
   34.6263  1.04356
   34.9828  1.06290
   35.3430  1.08260
   35.7069  1.10266
   36.0746  1.12310
   36.4460  1.14749
   36.8213  1.17296
   37.2004  1.19954
   37.5835  1.22673
   37.9705  1.25452
   38.3614  1.28295
   38.7564  1.31202
   39.1555  1.34175
   39.5586  1.37216
   39.9660  1.40325
   40.3775  1.43505
   40.7932  1.46757
   41.2133  1.50082
   41.6376  1.53483
   42.0663  1.56927
   42.4995  1.60414
   42.9371  1.63904
   43.3792  1.67470
   43.8258  1.71113
   44.2771  1.74836
   44.7330  1.78640
   45.1936  1.82526
   45.6589  1.86497
   46.1291  1.90555
   46.6041  1.94701
   47.0839  1.98937
   47.5687  2.03265
   48.0585  2.07687
   48.5534  2.12206
   49.0533  2.16823
   49.5584  2.21540
   50.0687  2.26505
   50.5842  2.31680
   51.1050  2.37084
   51.6312  2.42614
   52.1629  2.48273
   52.7000  2.53836
   53.2426  2.59276
   53.7908  2.64409
   54.3447  2.69644
   54.9043  8.411027E-02
   55.4696  8.038263E-02
   56.0407  7.682005E-02
   56.6178  7.341531E-02
   57.2007  7.016174E-02
   57.7897  6.731936E-02
   58.3847  6.482827E-02
   58.9859  6.319609E-02
   59.5933  6.175838E-02
   60.2069  6.053496E-02
   60.8268  5.956422E-02
   61.4531  5.868951E-02
   62.0859  5.791878E-02
   62.7251  5.724853E-02
   63.3710  5.670715E-02
   64.0235  5.674301E-02
   64.6827  5.700456E-02
   65.3487  5.744805E-02
   66.0216  5.873139E-02
   66.7014  6.005117E-02
   67.3882  6.140065E-02
   68.0821  6.398341E-02
   68.7831  6.674986E-02
   69.4913  6.929936E-02
   70.2068  7.170914E-02
   70.9297  7.402112E-02
   71.6601  7.592513E-02
   72.3979  7.787800E-02
   73.1434  7.986386E-02
   73.8965  8.127353E-02
   74.6574  8.254289E-02
   75.4261  8.363634E-02
   76.2027  8.432598E-02
   76.9874  8.496883E-02
   77.7801  8.561050E-02
   78.5809  8.581281E-02
   79.3901  8.587515E-02
   80.2075  8.592989E-02
   81.0334  8.603810E-02
   81.8677  8.619649E-02
   82.7107  8.663075E-02
   83.5623  8.706718E-02
   84.4228  8.750580E-02
   85.2920  8.794658E-02
   86.1702  8.847841E-02
   87.0575  8.916949E-02
   87.9539  9.030005E-02
   88.8595  9.167719E-02
   89.7745  9.348255E-02
   90.6988  9.567846E-02
   91.6327  9.820618E-02
   92.5762  0.101710
   93.5295  0.105173
   94.4925  0.108606
   95.4655  0.112045
   96.4484  0.115908
   97.4415  0.120398
   98.4448  0.124757
   99.4585  0.128654
   100.483  0.131116
   101.517  0.136103
   102.562  0.142076
   103.619  0.146256
   104.685  0.150565
   105.763  0.155004
   106.852  0.159383
   107.953  0.163661
   109.064  0.167754
   110.187  0.171590
   111.322  0.175385
   112.468  0.179091
   113.626  0.182982
   114.796  0.187067
   115.978  0.191595
   117.172  0.196307
   118.379  0.201184
   119.597  0.206183
   120.829  0.211305
   122.073  0.216555
   123.330  0.221936
   124.600  0.227450
   125.883  0.233100
   127.179  0.238892
   128.488  0.244829
   129.811  0.250914
   131.148  0.257166
   132.498  0.263605
   133.863  0.270480
   135.241  0.277594
   136.634  0.284956
   138.040  0.292514
   139.462  0.300272
   140.898  0.308236
   142.349  0.316409
   143.814  0.324800
   145.295  0.333415
   146.791  0.342016
   148.303  0.350681
   149.830  0.359245
   151.372  0.368107
   152.931  0.377263
   154.506  0.386933
   156.096  0.396949
   157.704  0.407359
   159.328  0.418044
   160.968  0.429007
   162.626  0.440257
   164.300  0.451800
   165.992  0.463646
   167.701  0.475811
   169.428  0.488242
   171.172  0.500957
   172.935  0.513879
   174.715  0.527059
   176.514  0.540483
   178.332  0.554249
   180.168  0.568439
   182.023  0.583154
   183.897  0.599140
   185.791  0.615915
   187.704  0.633371
   189.637  0.651423
   191.589  0.670015
   193.562  0.688409
   195.555  0.707192
   197.568  0.726362
   199.603  0.745859
   201.658  0.765864
   203.734  0.786408
   205.832  0.807498
   207.952  0.829153
   210.093  0.851390
   212.256  0.874919
   214.441  0.899498
   216.650  0.924989
   218.880  0.951302
   221.134  0.978459
   223.411  1.00638
   225.711  1.03511
   228.035  1.06465
   230.383  1.09505
   232.756  1.12630
   235.152  1.15844
   237.573  1.19150
   240.020  1.22550
   242.491  1.26048
   244.988  1.29646
   247.510  1.33347
   250.059  1.37154
   252.634  1.41070
   255.235  1.45097
   257.863  1.49237
   260.518  1.53496
   263.201  1.57878
   265.911  1.62388
   268.649  1.67026
   271.415  1.71788
   274.209  1.76725
   277.033  1.81834
   279.885  1.87177
   282.767  1.92700
   285.679  1.98415
   288.620  2.04306
   291.592  2.10373
   294.594  2.16622
   297.628  2.23056
   300.692  2.29681
   303.788  2.36503
   306.916  2.43526
   310.077  2.50758
   313.269  2.58205
   316.495  2.65873
   319.754  2.73770
   323.046  2.81900
   326.372  2.90272
   329.733  2.98892
   333.128  3.07769
   336.558  3.16910
   340.024  3.26322
   343.525  3.36014
   347.062  3.45992
   350.635  3.56268
   354.246  3.66847
   357.893  3.77741
   361.578  3.88958
   365.301  4.00509
   369.063  4.12405
   372.863  4.24654
   376.702  4.37265
   380.581  4.50251
   384.499  4.63702
   388.459  4.77623
   392.458  4.92185
   396.499  5.07209
   400.582  5.22706
   404.707  5.38690
   408.874  5.55167
   413.084  5.72153
   417.337  5.89648
   421.634  6.07677
   425.976  6.26257
   430.362  6.45410
   434.793  6.65152
   439.270  6.85496
   443.793  7.06486
   448.362  7.28144
   452.979  7.50680
   457.643  7.73996
   462.355  7.98130
   467.116  8.23110
   471.926  8.48883
   476.785  8.75468
   481.694  9.02879
   486.654  9.31146
   491.665  9.60294
   496.727  9.90354
   501.842  10.2136
   507.009  10.5332
   512.230  10.8628
   517.504  11.2025
   522.832  11.5519
   528.216  11.9113
   533.655  12.2806
   539.150  12.6603
   544.701  13.0517
   550.310  13.4554
   555.976  13.8759
   561.701  14.3121
   567.484  14.7647
   573.327  15.2307
   579.231  15.7108
   585.195  16.2049
   591.220  16.7143
   597.308  17.2394
   603.458  17.7814
   609.672  18.3404
   615.949  18.9167
   622.291  19.5117
   628.699  20.1276
   635.172  20.7742
   641.712  21.4531
   648.320  22.1630
   654.995  22.9104
   661.740  23.6829
   668.553  24.4816
   675.437  25.2626
   682.392  26.0496
   689.418  26.8325
   696.517  27.6304
   703.689  28.4561
   710.934  29.3386
   718.254  30.2659
   725.650  31.2337
   733.122  32.2322
   740.670  33.2627
   748.297  34.3261
   756.002  35.4234
   763.786  36.5562
   771.650  37.7260
   779.596  38.9358
   787.623  40.1856
   795.733  41.4778
   803.926  42.8113
   812.204  44.1874
   820.567  45.6080
   829.016  47.0743
   837.552  48.5878
   846.176  50.1477
   854.888  51.7564
   863.691  53.4150
   872.584  55.1244
   881.569  56.8878
   890.646  58.7072
   899.816  60.5849
   909.081  62.5227
   918.442  64.5226
   927.899  66.5968
   937.453  68.7464
   947.106  70.9696
   956.858  73.2664
   966.710  75.6400
   976.664  78.0910
   986.720  80.6205
   996.880  83.2296
   1007.14  85.9203
   1017.51  88.6911
   1027.99  91.5186
   1038.58  94.4456
   1049.27  97.4731
   1060.07  100.616
   1070.99  103.861
   1082.02  107.210
   1093.16  110.667
   1104.41  114.235
   1115.79  117.919
   1127.27  121.721
   1138.88  125.645
   1150.61  129.695
   1162.46  133.878
   1174.42  138.196
   1186.52  142.651
   1198.73  147.250
   1211.08  151.997
   1223.55  156.899
   1236.15  161.967
   1248.87  167.211
   1261.73  172.647
   1274.72  178.276
   1287.85  184.120
   1301.11  190.154
   1314.51  196.385
   1328.04  202.819
   1341.72  209.464
   1355.53  216.329
   1369.49  223.417
   1383.59  230.737
   1397.84  238.297
   1412.23  246.103
   1426.77  254.166
   1441.46  262.494
   1456.30  271.099
   1471.30  279.991
   1486.45  289.189
   1501.75  298.726
   1517.22  308.607
   1532.84  318.823
   1548.62  329.377
   1564.57  340.279
   1580.68  351.544
   1596.95  363.181
   1613.40  375.203
   1630.01  387.623
   1646.79  400.453
   1663.75  413.708
   1680.88  427.400
   1698.19  441.544
   1715.67  456.157
   1733.34  471.323
   1751.18  487.074
   1769.22  503.402
   1787.43  520.297
   1805.84  537.788
   1824.43  555.867
   1843.22  574.523
   1862.20  593.692
   1881.37  613.285
   1900.74  633.400
   1920.31  654.172
   1940.09  675.623
   1960.06  697.773
   1980.24  720.651
   2000.63  744.275
   2021.23  768.671
   2042.05  793.868
   2063.07  819.889
   2084.31  846.755
   2105.78  874.501
   2127.46  903.155
   2149.36  932.743
   2171.49  963.294
   2193.85  994.840
   2216.44  1027.42
   2239.26  1061.06
   2262.32  1095.79
   2285.62  1131.65
   2309.15  1168.69
   2332.93  1206.93
   2356.95  1246.41
   2381.22  1287.22
   2405.73  1329.62
   2430.51  1374.53
   2455.53  1421.77
   2480.81  1470.64
   2506.36  1521.16
   2532.17  1573.41
   2558.24  1627.44
   2584.58  1683.32
   2611.19  1741.10
   2638.08  1800.93
   2665.24  1862.87
   2692.68  1927.12
   2720.41  1993.57
   2748.42  2062.28
   2776.72  2133.35
   2805.31  2206.83
   2834.20  2282.82
   2863.38  2361.40
   2892.86  2442.72
   2922.65  2526.96
   2952.74  2614.25
   2983.15  2704.57
   3013.86  2797.94
   3044.89  2894.49
   3076.25  2994.35
   3107.92  3097.58
   3139.92  3204.31
   3172.25  3314.65
   3204.92  3428.93
   3237.92  3547.14
   3271.26  3669.41
   3304.94  3795.80
   3338.97  3926.44
   3373.35  4061.47
   3408.08  4201.06
   3443.17  4345.33
   3478.63  4494.44
   3514.45  4648.41
   3550.63  4807.42
   3587.19  4971.70
   3624.13  5141.44
   3661.44  5316.80
   3699.14  5497.93
   3737.23  5685.04
   3775.71  5878.30
   3814.59  6077.85
   3853.87  6283.74
   3893.55  6495.45
   3933.64  6713.98
   3974.14  6939.52
   4015.06  7172.32
   4056.40  7412.52
   4098.17  7660.41
   4140.37  7916.19
   4183.00  8180.04
   4226.07  8452.11
   4269.59  8732.32
   4313.55  9021.16
   4357.96  9318.87
   4402.83  9625.88
   4448.17  9942.34
   4493.97  10268.5
   4540.24  10604.6
   4586.99  10950.8
   4634.22  11307.1
   4681.94  11673.8
   4730.15  12051.1
   4778.85  12439.5
   4828.06  12839.3
   4877.77  13250.6
   4928.00  13673.9
   4978.74  14109.2
   5030.00  14557.0
   5036.95  14618.3
   5043.91  14679.8
   5050.87  14741.6
   5057.85  14803.5
   5064.83  14865.7
   5071.83  14928.1
   5078.84  14990.8
   5085.85  15053.7
   5092.88  15116.7
   5099.91  15180.1
   5106.96  15243.7
   5114.01  15307.5
   5121.07  15371.5
   5128.15  15435.8
   5135.23  15500.3
   5142.32  15565.1
   5149.43  15630.0
   5156.54  15695.2
   5163.66  15760.6
   5170.79  15826.3
   5177.94  15892.2
   5185.09  15958.4
   5192.25  16024.8
   5199.42  16091.4
   5206.60  16158.3
   5213.80  16225.4
   5221.00  16292.8
   5228.21  16360.4
   5235.43  16428.3
   5242.66  16496.4
   5249.90  16564.7
   5257.16  16633.3
   5264.42  16702.2
   5271.69  16771.3
   5278.97  16840.6
   5286.26  16910.2
   5293.56  16980.0
   5300.88  17050.1
   5308.20  17120.5
   5315.53  17191.0
   5322.87  17261.8
   5330.23  17333.0
   5337.59  17404.3
   5344.96  17475.9
   5352.34  17547.7
   5359.74  17619.8
   5367.14  17692.2
   5374.55  17764.8
   5381.98  17837.6
   5389.41  17910.8
   5396.85  17984.2
   5404.31  18057.8
   5411.77  18131.7
   5419.25  18205.9
   5426.73  18280.3
   5434.23  18355.0
   5441.74  18429.9
   5449.25  18505.1
   5456.78  18580.6
   5464.32  18656.3
   5471.87  18732.3
   5479.42  18808.5
   5486.99  18885.0
   5494.57  18961.8
   5502.16  19038.8
   5509.76  19116.1
   5517.37  19193.6
   5524.99  19271.4
   5532.62  19349.5
   5540.27  19427.9
   5547.92  19506.5
   5555.58  19585.4
   5563.26  19664.5
   5570.94  19743.9
   5578.63  19823.5
   5586.34  19903.3
   5594.06  19983.5
   5601.78  20063.9
   5609.52  20144.5
   5617.27  20225.5
   5625.03  20306.7
   5632.80  20388.2
   5640.58  20470.0
   5648.37  20552.0
   5656.17  20634.3
   5663.98  20716.8
   5671.81  20799.6
   5679.64  20882.7
   5687.49  20966.1
   5695.34  21049.7
   5703.21  21133.6
   5711.09  21217.8
   5718.98  21302.3
   5726.88  21387.0
   5734.79  21472.0
   5742.71  21557.3
   5750.64  21642.9
   5758.58  21728.7
   5766.54  21814.8
   5774.50  21901.2
   5782.48  21987.9
   5790.47  22074.8
   5798.46  22162.0
   5806.47  22249.5
   5814.49  22337.2
   5822.52  22425.3
   5830.57  22513.6
   5838.62  22602.2
   5846.69  22691.2
   5854.76  22780.3
   5862.85  22869.8
   5870.95  22959.5
   5879.06  23049.5
   5887.18  23139.8
   5895.31  23230.5
   5903.45  23321.3
   5911.61  23412.5
   5919.77  23503.9
   5927.95  23595.6
   5936.14  23687.6
   5944.34  23779.9
   5952.55  23872.4
   5960.77  23965.2
   5969.00  24058.3
   5977.25  24151.7
   5985.50  24245.4
   5993.77  24339.4
   6002.05  24433.7
   6010.34  24528.5
   6018.64  24623.6
   6026.96  24719.0
   6035.28  24814.7
   6043.62  24910.7
   6051.97  25007.0
   6060.32  25103.6
   6068.70  25200.4
   6077.08  25297.6
   6085.47  25395.0
   6093.88  25492.8
   6102.29  25590.8
   6110.72  25689.1
   6119.16  25787.7
   6127.62  25886.6
   6136.08  25985.7
   6144.56  26085.1
   6153.04  26184.8
   6161.54  26284.8
   6170.05  26385.1
   6178.58  26485.6
   6187.11  26586.5
   6195.66  26687.6
   6204.21  26789.1
   6212.78  26890.8
   6221.37  26992.8
   6229.96  27095.2
   6238.56  27197.8
   6247.18  27300.6
   6255.81  27403.9
   6264.45  27507.3
   6273.10  27611.1
   6281.77  27715.2
   6290.45  27819.5
   6299.14  27924.2
   6307.84  28029.1
   6316.55  28134.3
   6325.27  28239.9
   6334.01  28345.7
   6342.76  28451.8
   6351.52  28558.2
   6360.29  28664.9
   6369.08  28771.9
   6377.88  28879.2
   6386.69  28986.7
   6395.51  29094.6
   6404.34  29202.8
   6413.19  29311.2
   6422.05  29420.0
   6430.92  29529.0
   6439.80  29638.3
   6448.70  29747.9
   6457.60  29857.8
   6466.52  29968.0
   6475.45  30078.4
   6484.40  30189.2
   6493.36  30300.3
   6502.32  30411.6
   6511.31  30523.2
   6520.30  30635.1
   6529.31  30747.3
   6538.33  30859.9
   6547.36  30972.6
   6556.40  31085.7
   6565.46  31199.0
   6574.52  31312.7
   6583.61  31426.6
   6592.70  31540.8
   6601.81  31655.3
   6610.92  31770.1
   6620.06  31885.2
   6629.20  32000.5
   6638.36  32116.2
   6647.53  32232.1
   6656.71  32348.3
   6665.90  32464.8
   6675.11  32581.5
   6684.33  32698.6
   6693.56  32815.9
   6702.81  32933.5
   6712.07  33051.4
   6721.34  33169.5
   6730.62  33288.0
   6739.92  33406.7
   6749.23  33525.7
   6758.55  33645.0
   6767.89  33764.5
   6777.24  33884.3
   6786.60  34004.4
   6795.97  34124.8
   6805.36  34245.4
   6814.76  34366.3
   6824.17  34487.5
   6833.60  34609.0
   6843.04  34730.7
   6852.49  34852.7
   6861.95  34975.0
   6871.43  35097.5
   6880.92  35220.3
   6890.43  35343.5
   6899.95  35466.8
   6909.48  35590.4
   6919.02  35714.3
   6928.58  35838.5
   6938.15  35962.9
   6947.73  36087.6
   6957.33  36212.5
   6966.94  36337.8
   6976.56  36463.3
   6986.20  36589.1
   6995.85  36715.1
   7005.51  36841.4
   7015.19  36968.0
   7024.88  37094.8
   7034.58  37221.8
   7044.30  37349.2
   7054.03  37476.8
   7063.77  37604.6
   7073.53  37732.7
   7083.30  37861.1
   7093.08  37989.7
   7102.88  38118.5
   7112.69  38247.6
   7122.52  38377.0
   7132.35  38506.6
   7142.21  38636.4
   7152.07  38766.6
   7161.95  38896.9
   7171.84  39027.5
   7181.75  39158.4
   7191.67  39289.4
   7201.60  39420.8
   7211.55  39552.4
   7221.51  39684.2
   7231.49  39816.3
   7241.47  39948.6
   7251.48  40081.2
   7261.49  40213.9
   7271.52  40346.9
   7281.57  40480.2
   7291.62  40613.7
   7301.70  40747.4
   7311.78  40881.4
   7321.88  41015.6
   7332.00  41150.0
   7342.12  41284.6
   7352.26  41419.5
   7362.42  41554.6
   7372.59  41689.9
   7382.77  41825.4
   7392.97  41961.2
   7403.18  42097.2
   7413.41  42233.4
   7423.65  42369.9
   7433.90  42506.5
   7444.17  42643.4
   7454.45  42780.5
   7464.75  42917.9
   7475.06  43055.4
   7485.39  43193.2
   7495.72  43331.1
   7506.08  43469.3
   7516.45  43607.7
   7526.83  43746.3
   7537.23  43885.1
   7547.64  44024.0
   7558.06  44163.3
   7568.50  44302.6
   7578.96  44442.2
   7589.42  44582.0
   7599.91  44721.9
   7610.40  44862.1
   7620.92  45002.5
   7631.44  45143.0
   7641.98  45283.8
   7652.54  45424.7
   7663.11  45565.7
   7673.70  45707.1
   7684.29  45848.5
   7694.91  45990.2
   7705.54  46132.0
   7716.18  46274.0
   7726.84  46416.2
   7737.51  46558.5
   7748.20  46701.0
   7758.90  46843.8
   7769.62  46986.6
   7780.35  47129.6
   7791.10  47272.8
   7801.86  47416.2
   7812.64  47559.7
   7823.43  47703.4
   7834.23  47847.2
   7845.06  47991.3
   7855.89  48135.4
   7866.74  48279.7
   7877.61  48424.2
   7888.49  48568.8
   7899.39  48713.6
   7910.30  48858.5
   7921.22  49003.5
   7932.17  49148.7
   7943.12  49294.0
   7954.09  49439.4
   7965.08  49585.1
   7976.08  49730.8
   7987.10  49876.7
   7998.13  50022.7
   8009.18  50170.5
   8020.24  50319.0
   8031.32  50467.5
   8042.41  50616.1
   8053.52  50765.0
   8064.65  50914.1
   8075.79  51063.3
   8086.94  51212.6
   8098.11  51362.1
   8109.30  51511.7
   8120.50  51661.5
   8131.71  51811.4
   8142.95  51961.4
   8154.19  52111.6
   8165.46  52261.9
   8176.74  52412.3
   8188.03  52562.8
   8199.34  52713.6
   8210.67  52864.4
   8222.01  53015.4
   8233.36  53166.5
   8244.74  53317.7
   8256.13  53469.1
   8267.53  53620.5
   8278.95  53772.0
   8290.38  53923.7
   8301.83  54075.4
   8313.30  54227.3
   8324.79  54379.3
   8336.28  54531.3
   8347.80  54683.4
   8359.33  54835.7
   8370.88  54988.1
   8382.44  55140.5
   8394.02  55293.1
   8405.61  55445.7
   8417.22  55598.4
   8428.85  55751.2
   8440.49  55904.1
   8452.15  56057.1
   8463.82  56210.1
   8475.51  56363.3
   8487.22  56516.4
   8498.95  56669.7
   8510.68  56823.1
   8522.44  56976.5
   8534.21  57129.9
   8546.00  57283.5
   8557.80  57437.1
   8569.63  57590.8
   8581.46  57744.5
   8593.32  57898.2
   8605.19  58052.0
   8617.07  58205.9
   8628.97  58359.7
   8640.89  58513.7
   8652.83  58667.7
   8664.78  58821.7
   8676.75  58975.8
   8688.73  59129.9
   8700.74  59284.0
   8712.75  59438.2
   8724.79  59592.3
   8736.84  59746.6
   8748.91  59900.9
   8760.99  60055.2
   8773.09  60209.5
   8785.21  60363.8
   8797.35  60518.2
   8809.50  60672.6
   8821.67  60826.9
   8833.85  60981.3
   8846.05  61135.7
   8858.27  61290.1
   8870.51  61444.6
   8882.76  61599.1
   8895.03  61753.7
   8907.32  61908.2
   8919.62  62062.7
   8931.94  62217.3
   8944.28  62371.7
   8956.63  62526.2
   8969.00  62680.7
   8981.39  62835.1
   8993.80  62989.6
   9006.22  63144.0
   9018.66  63298.4
   9031.12  63452.8
   9043.59  63607.2
   9056.08  63761.5
   9068.59  63915.9
   9081.12  64070.1
   9093.66  64224.4
   9106.22  64378.6
   9118.80  64532.7
   9131.40  64686.9
   9144.01  64840.9
   9156.64  64994.9
   9169.29  65148.9
   9181.95  65302.8
   9194.64  65456.6
   9207.34  65610.4
   9220.05  65764.1
   9232.79  65917.8
   9245.54  66071.3
   9258.31  66224.8
   9271.10  66378.3
   9283.91  66531.6
   9296.73  66684.8
   9309.57  66838.1
   9322.43  66991.2
   9335.31  67144.2
   9348.20  67297.1
   9361.12  67450.0
   9374.05  67602.8
   9386.99  67755.4
   9399.96  67908.0
   9412.94  68060.4
   9425.95  68212.8
   9438.97  68365.1
   9452.00  68517.2
   9465.06  68669.2
   9478.13  68821.1
   9491.23  68972.9
   9504.34  69124.5
   9517.46  69276.1
   9530.61  69427.6
   9543.77  69578.9
   9556.96  69730.1
   9570.16  69881.1
   9583.38  70032.0
   9596.61  70182.8
   9609.87  70333.4
   9623.14  70484.0
   9636.44  70634.3
   9649.75  70784.5
   9663.08  70934.6
   9676.42  71084.5
   9689.79  71234.3
   9703.17  71383.9
   9716.58  71533.4
   9730.00  71682.7
   9743.44  71831.9
   9756.89  71980.8
   9770.37  72130.0
   9783.87  72278.9
   9797.38  72427.7
   9810.91  72576.4
   9824.47  72724.8
   9838.04  72873.1
   9851.63  73021.1
   9865.23  73169.0
   9878.86  73316.8
   9892.50  73464.3
   9906.17  73611.7
   9919.85  73758.8
   9933.55  73905.6
   9947.28  74052.3
   9961.02  74198.8
   9974.77  74345.0
   9988.55  74491.1
   10002.3  74638.2
   10016.2  74791.6
   10030.0  74944.7
   10038.1  75034.3
   10046.2  75124.0
   10054.4  75213.6
   10062.5  75303.1
   10070.7  75392.6
   10078.8  75482.0
   10087.0  75571.4
   10095.1  75660.7
   10103.3  75750.0
   10111.5  75839.2
   10119.6  75928.4
   10127.8  76017.5
   10136.0  76106.6
   10144.2  76195.6
   10152.4  76284.5
   10160.7  76373.5
   10168.9  76462.3
   10177.1  76551.1
   10185.3  76639.8
   10193.6  76728.5
   10201.8  76817.1
   10210.1  76905.6
   10218.4  76994.1
   10226.6  77082.6
   10234.9  77171.0
   10243.2  77259.3
   10251.5  77347.6
   10259.8  77435.8
   10268.1  77524.1
   10276.4  77612.2
   10284.7  77700.2
   10293.0  77788.2
   10301.4  77876.2
   10309.7  77964.1
   10318.0  78051.8
   10326.4  78139.6
   10334.7  78227.3
   10343.1  78314.9
   10351.5  78402.5
   10359.9  78489.9
   10368.2  78577.3
   10376.6  78664.7
   10385.0  78752.0
   10393.4  78839.2
   10401.8  78926.4
   10410.3  79013.5
   10418.7  79100.5
   10427.1  79187.5
   10435.6  79274.4
   10444.0  79361.2
   10452.4  79448.0
   10460.9  79534.7
   10469.4  79621.3
   10477.8  79707.9
   10486.3  79794.4
   10494.8  79880.8
   10503.3  79967.1
   10511.8  80053.4
   10520.3  80139.6
   10528.8  80225.7
   10537.3  80311.8
   10545.9  80397.7
   10554.4  80483.6
   10562.9  80569.5
   10571.5  80655.2
   10580.1  80740.9
   10588.6  80826.5
   10597.2  80912.2
   10605.8  80997.6
   10614.3  81083.0
   10622.9  81168.4
   10631.5  81253.6
   10640.1  81338.8
   10648.7  81423.9
   10657.4  81508.9
   10666.0  81593.9
   10674.6  81678.8
   10683.3  81763.5
   10691.9  81848.2
   10700.6  81932.8
   10709.2  82017.4
   10717.9  82101.9
   10726.6  82186.2
   10735.2  82270.5
   10743.9  82354.7
   10752.6  82438.9
   10761.3  82523.0
   10770.0  82606.9
   10778.7  82690.8
   10787.5  82774.7
   10796.2  82858.4
   10804.9  82942.1
   10813.7  83025.6
   10822.4  83109.1
   10831.2  83192.5
   10840.0  83275.8
   10848.7  83359.0
   10857.5  83442.1
   10866.3  83525.2
   10875.1  83608.2
   10883.9  83691.0
   10892.7  83773.8
   10901.5  83856.6
   10910.3  83939.1
   10919.2  84021.6
   10928.0  84104.1
   10936.8  84186.4
   10945.7  84268.7
   10954.5  84350.9
   10963.4  84433.0
   10972.3  84515.0
   10981.2  84596.9
   10990.0  84678.7
   10998.9  84760.5
   11007.8  84842.1
   11016.8  84923.7
   11025.7  85005.1
   11034.6  85086.4
   11043.5  85167.7
   11052.5  85248.9
   11061.4  85329.9
   11070.4  85410.9
   11079.3  85491.8
   11088.3  85572.5
   11097.3  85653.3
   11106.2  85733.9
   11115.2  85814.4
   11124.2  85894.9
   11133.2  85975.2
   11142.2  86055.5
   11151.2  86135.6
   11160.3  86215.7
   11169.3  86295.7
   11178.3  86375.5
   11187.4  86455.2
   11196.4  86534.9
   11205.5  86614.4
   11214.6  86693.9
   11223.6  86773.3
   11232.7  86852.5
   11241.8  86931.7
   11250.9  87010.8
   11260.0  87089.7
   11269.1  87168.5
   11278.3  87247.3
   11287.4  87326.0
   11296.5  87404.6
   11305.7  87483.1
   11314.8  87561.5
   11324.0  87639.8
   11333.1  87718.0
   11342.3  87796.1
   11351.5  87874.0
   11360.7  87951.9
   11369.9  88029.7
   11379.1  88107.4
   11388.3  88184.9
   11397.5  88262.4
   11406.7  88339.7
   11415.9  88417.0
   11425.2  88494.1
   11434.4  88571.1
   11443.7  88648.0
   11452.9  88724.9
   11462.2  88801.6
   11471.5  88878.2
   11480.8  88954.6
   11490.1  89031.1
   11499.4  89107.4
   11508.7  89183.5
   11518.0  89259.6
   11527.3  89335.5
   11536.6  89411.4
   11546.0  89487.1
   11555.3  89562.7
   11564.7  89638.2
   11574.0  89713.6
   11583.4  89788.9
   11592.8  89864.1
   11602.1  89939.1
   11611.5  90014.1
   11620.9  90089.0
   11630.3  90163.7
   11639.7  90238.3
   11649.2  90312.8
   11658.6  90387.3
   11668.0  90461.6
   11677.5  90535.8
   11686.9  90609.8
   11696.4  90683.8
   11705.8  90757.6
   11715.3  90831.4
   11724.8  90905.0
   11734.3  90978.5
   11743.8  91051.9
   11753.3  91125.2
   11762.8  91198.3
   11772.3  91271.4
   11781.8  91344.3
   11791.4  91417.2
   11800.9  91489.8
   11810.5  91562.4
   11820.0  91634.9
   11829.6  91707.2
   11839.2  91779.5
   11848.7  91851.7
   11858.3  91923.8
   11867.9  91995.7
   11877.5  92067.5
   11887.1  92139.2
   11896.8  92210.8
   11906.4  92282.3
   11916.0  92353.6
   11925.7  92424.9
   11935.3  92496.0
   11945.0  92567.0
   11954.6  92637.8
   11964.3  92708.6
   11974.0  92779.2
   11983.7  92849.8
   11993.4  92920.1
   12003.1  92990.4
   12012.8  93060.5
   12022.5  93130.5
   12032.3  93200.5
   12042.0  93270.3
   12051.7  93339.9
   12061.5  93409.5
   12071.3  93478.9
   12081.0  93548.2
   12090.8  93617.4
   12100.6  93686.4
   12110.4  93755.4
   12120.2  93824.2
   12130.0  93892.9
   12139.8  93961.4
   12149.6  94029.9
   12159.5  94098.2
   12169.3  94166.5
   12179.1  94234.5
   12189.0  94302.4
   12198.9  94370.3
   12208.7  94438.0
   12218.6  94505.6
   12228.5  94573.1
   12238.4  94640.5
   12248.3  94707.8
   12258.2  94774.9
   12268.1  94842.0
   12278.1  94908.9
   12288.0  94975.7
   12297.9  95042.3
   12307.9  95108.8
   12317.9  95175.2
   12327.8  95241.6
   12337.8  95307.7
   12347.8  95373.7
   12357.8  95439.6
   12367.8  95505.4
   12377.8  95571.0
   12387.8  95636.5
   12397.8  95701.9
   12407.9  95767.2
   12417.9  95832.4
   12428.0  95897.3
   12438.0  95962.2
   12448.1  96026.9
   12458.2  96091.6
   12468.2  96156.1
   12478.3  96220.4
   12488.4  96284.6
   12498.5  96348.7
   12508.6  96412.8
   12518.8  96476.6
   12528.9  96540.3
   12539.0  96603.9
   12549.2  96667.4
   12559.3  96730.7
   12569.5  96793.9
   12579.7  96857.0
   12589.9  96920.0
   12600.0  96982.8
   12610.2  97045.5
   12620.4  97108.1
   12630.7  97170.5
   12640.9  97233.0
   12651.1  97295.2
   12661.3  97357.3
   12671.6  97419.2
   12681.8  97481.1
   12692.1  97542.8
   12702.4  97604.4
   12712.7  97665.8
   12723.0  97727.2
   12733.2  97788.4
   12743.6  97849.4
   12753.9  97910.3
   12764.2  97971.1
   12774.5  98031.8
   12784.9  98092.3
   12795.2  98152.7
   12805.6  98213.0
   12815.9  98273.2
   12826.3  98333.2
   12836.7  98393.0
   12847.1  98452.8
   12857.5  98512.4
   12867.9  98571.9
   12878.3  98631.2
   12888.7  98690.4
   12899.1  98749.5
   12909.6  98808.5
   12920.0  98867.3
   12930.5  98926.0
   12940.9  98984.5
   12951.4  99043.0
   12961.9  99101.3
   12972.4  99159.4
   12982.9  99217.4
   12993.4  99275.4
   13003.9  99333.1
   13014.4  99390.8
   13024.9  99448.3
   13035.5  99505.7
   13046.0  99563.0
   13056.6  99620.2
   13067.2  99677.2
   13077.7  99734.1
   13088.3  99791.0
   13098.9  99847.6
   13109.5  99904.1
   13120.1  99960.5
   13130.7  100017.
   13141.4  100073.
   13152.0  100129.
   13162.6  100185.
   13173.3  100240.
   13184.0  100296.
   13194.6  100351.
   13205.3  100407.
   13216.0  100462.
   13226.7  100517.
   13237.4  100572.
   13248.1  100627.
   13258.8  100681.
   13269.6  100736.
   13280.3  100790.
   13291.0  100845.
   13301.8  100899.
   13312.6  100953.
   13323.3  101006.
   13334.1  101060.
   13344.9  101114.
   13355.7  101167.
   13366.5  101221.
   13377.3  101274.
   13388.2  101327.
   13399.0  101380.
   13409.8  101433.
   13420.7  101485.
   13431.5  101538.
   13442.4  101590.
   13453.3  101642.
   13464.2  101695.
   13475.1  101747.
   13486.0  101798.
   13496.9  101850.
   13507.8  101902.
   13518.8  101953.
   13529.7  102005.
   13540.6  102056.
   13551.6  102107.
   13562.6  102158.
   13573.5  102209.
   13584.5  102260.
   13595.5  102310.
   13606.5  102361.
   13617.5  102411.
   13628.6  102461.
   13639.6  102511.
   13650.6  102561.
   13661.7  102611.
   13672.7  102660.
   13683.8  102710.
   13694.9  102759.
   13705.9  102808.
   13717.0  102858.
   13728.1  102907.
   13739.2  102955.
   13750.4  103004.
   13761.5  103053.
   13772.6  103101.
   13783.8  103149.
   13794.9  103198.
   13806.1  103246.
   13817.3  103294.
   13828.4  103341.
   13839.6  103389.
   13850.8  103436.
   13862.0  103484.
   13873.3  103531.
   13884.5  103578.
   13895.7  103625.
   13907.0  103672.
   13918.2  103719.
   13929.5  103765.
   13940.8  103812.
   13952.0  103858.
   13963.3  103904.
   13974.6  103951.
   13985.9  103997.
   13997.3  104042.
   14008.6  104088.
   14019.9  104134.
   14031.3  104179.
   14042.6  104224.
   14054.0  104270.
   14065.4  104315.
   14076.7  104359.
   14088.1  104404.
   14099.5  104449.
   14111.0  104493.
   14122.4  104538.
   14133.8  104582.
   14145.2  104626.
   14156.7  104670.
   14168.1  104714.
   14179.6  104758.
   14191.1  104801.
   14202.6  104845.
   14214.1  104888.
   14225.6  104931.
   14237.1  104974.
   14248.6  105017.
   14260.1  105060.
   14271.7  105103.
   14283.2  105145.
   14294.8  105188.
   14306.3  105230.
   14317.9  105272.
   14329.5  105314.
   14341.1  105356.
   14352.7  105398.
   14364.3  105440.
   14376.0  105481.
   14387.6  105523.
   14399.2  105564.
   14410.9  105605.
   14422.5  105646.
   14434.2  105687.
   14445.9  105728.
   14457.6  105768.
   14469.3  105809.
   14481.0  105849.
   14492.7  105890.
   14504.4  105930.
   14516.2  105970.
   14527.9  106010.
   14539.7  106049.
   14551.5  106089.
   14563.2  106128.
   14575.0  106168.
   14586.8  106207.
   14598.6  106246.
   14610.4  106285.
   14622.3  106324.
   14634.1  106362.
   14645.9  106401.
   14657.8  106439.
   14669.6  106478.
   14681.5  106516.
   14693.4  106554.
   14705.3  106592.
   14717.2  106630.
   14729.1  106667.
   14741.0  106705.
   14752.9  106742.
   14764.9  106780.
   14776.8  106817.
   14788.8  106854.
   14800.8  106891.
   14812.7  106928.
   14824.7  106964.
   14836.7  107001.
   14848.7  107037.
   14860.7  107074.
   14872.8  107110.
   14884.8  107146.
   14896.9  107182.
   14908.9  107218.
   14921.0  107253.
   14933.0  107289.
   14945.1  107324.
   14957.2  107360.
   14969.3  107395.
   14981.4  107430.
   14993.6  107465.
   15005.7  107504.
   15017.8  107549.
   15030.0  107593.
   15038.6  107624.
   15047.3  107655.
   15055.9  107686.
   15064.6  107717.
   15073.2  107748.
   15081.9  107779.
   15090.6  107810.
   15099.2  107841.
   15107.9  107872.
   15116.6  107903.
   15125.3  107934.
   15134.0  107964.
   15142.6  107995.
   15151.3  108025.
   15160.0  108056.
   15168.8  108086.
   15177.5  108117.
   15186.2  108147.
   15194.9  108178.
   15203.6  108208.
   15212.4  108238.
   15221.1  108268.
   15229.9  108298.
   15238.6  108328.
   15247.4  108358.
   15256.1  108388.
   15264.9  108418.
   15273.7  108448.
   15282.4  108478.
   15291.2  108507.
   15300.0  108537.
   15308.8  108567.
   15317.6  108596.
   15326.4  108626.
   15335.2  108655.
   15344.0  108684.
   15352.8  108714.
   15361.6  108743.
   15370.5  108772.
   15379.3  108802.
   15388.1  108831.
   15397.0  108860.
   15405.8  108889.
   15414.7  108918.
   15423.5  108947.
   15432.4  108976.
   15441.3  109004.
   15450.1  109033.
   15459.0  109062.
   15467.9  109091.
   15476.8  109119.
   15485.7  109148.
   15494.6  109176.
   15503.5  109205.
   15512.4  109233.
   15521.3  109261.
   15530.2  109290.
   15539.1  109318.
   15548.1  109346.
   15557.0  109374.
   15565.9  109402.
   15574.9  109430.
   15583.8  109459.
   15592.8  109486.
   15601.7  109514.
   15610.7  109542.
   15619.7  109570.
   15628.6  109598.
   15637.6  109625.
   15646.6  109653.
   15655.6  109681.
   15664.6  109708.
   15673.6  109736.
   15682.6  109763.
   15691.6  109790.
   15700.6  109818.
   15709.6  109845.
   15718.7  109872.
   15727.7  109899.
   15736.7  109926.
   15745.8  109953.
   15754.8  109980.
   15763.9  110007.
   15772.9  110034.
   15782.0  110061.
   15791.1  110088.
   15800.1  110115.
   15809.2  110141.
   15818.3  110168.
   15827.4  110195.
   15836.5  110221.
   15845.6  110248.
   15854.7  110274.
   15863.8  110301.
   15872.9  110327.
   15882.0  110353.
   15891.1  110379.
   15900.3  110406.
   15909.4  110432.
   15918.5  110458.
   15927.7  110484.
   15936.8  110510.
   15946.0  110536.
   15955.2  110562.
   15964.3  110588.
   15973.5  110613.
   15982.7  110639.
   15991.9  110665.
   16001.0  110690.
   16010.2  110716.
   16019.4  110741.
   16028.6  110767.
   16037.8  110792.
   16047.1  110818.
   16056.3  110843.
   16065.5  110868.
   16074.7  110894.
   16084.0  110919.
   16093.2  110944.
   16102.5  110969.
   16111.7  110994.
   16121.0  111019.
   16130.2  111044.
   16139.5  111069.
   16148.8  111094.
   16158.0  111118.
   16167.3  111143.
   16176.6  111168.
   16185.9  111192.
   16195.2  111217.
   16204.5  111242.
   16213.8  111266.
   16223.1  111291.
   16232.5  111315.
   16241.8  111339.
   16251.1  111364.
   16260.5  111388.
   16269.8  111412.
   16279.1  111436.
   16288.5  111460.
   16297.9  111484.
   16307.2  111508.
   16316.6  111532.
   16326.0  111556.
   16335.3  111580.
   16344.7  111604.
   16354.1  111628.
   16363.5  111651.
   16372.9  111675.
   16382.3  111699.
   16391.7  111722.
   16401.2  111746.
   16410.6  111769.
   16420.0  111792.
   16429.4  111816.
   16438.9  111839.
   16448.3  111862.
   16457.8  111886.
   16467.2  111909.
   16476.7  111932.
   16486.2  111955.
   16495.6  111978.
   16505.1  112001.
   16514.6  112024.
   16524.1  112047.
   16533.6  112070.
   16543.1  112093.
   16552.6  112115.
   16562.1  112138.
   16571.6  112161.
   16581.1  112183.
   16590.6  112206.
   16600.2  112228.
   16609.7  112251.
   16619.3  112273.
   16628.8  112296.
   16638.4  112318.
   16647.9  112340.
   16657.5  112362.
   16667.1  112384.
   16676.6  112407.
   16686.2  112429.
   16695.8  112451.
   16705.4  112473.
   16715.0  112495.
   16724.6  112517.
   16734.2  112538.
   16743.8  112560.
   16753.4  112582.
   16763.1  112604.
   16772.7  112625.
   16782.3  112647.
   16792.0  112668.
   16801.6  112690.
   16811.3  112711.
   16820.9  112733.
   16830.6  112754.
   16840.3  112776.
   16849.9  112797.
   16859.6  112818.
   16869.3  112839.
   16879.0  112860.
   16888.7  112881.
   16898.4  112903.
   16908.1  112924.
   16917.8  112945.
   16927.5  112965.
   16937.3  112986.
   16947.0  113007.
   16956.7  113028.
   16966.5  113049.
   16976.2  113069.
   16986.0  113090.
   16995.7  113111.
   17005.5  113131.
   17015.3  113152.
   17025.0  113172.
   17034.8  113192.
   17044.6  113213.
   17054.4  113233.
   17064.2  113253.
   17074.0  113274.
   17083.8  113294.
   17093.6  113314.
   17103.5  113334.
   17113.3  113354.
   17123.1  113374.
   17133.0  113394.
   17142.8  113414.
   17152.6  113434.
   17162.5  113454.
   17172.4  113473.
   17182.2  113493.
   17192.1  113513.
   17202.0  113533.
   17211.9  113552.
   17221.7  113572.
   17231.6  113591.
   17241.5  113611.
   17251.4  113630.
   17261.4  113649.
   17271.3  113669.
   17281.2  113688.
   17291.1  113707.
   17301.1  113726.
   17311.0  113746.
   17320.9  113765.
   17330.9  113784.
   17340.9  113803.
   17350.8  113822.
   17360.8  113841.
   17370.8  113860.
   17380.7  113878.
   17390.7  113897.
   17400.7  113916.
   17410.7  113935.
   17420.7  113953.
   17430.7  113972.
   17440.7  113991.
   17450.8  114009.
   17460.8  114028.
   17470.8  114046.
   17480.9  114064.
   17490.9  114083.
   17500.9  114101.
   17511.0  114119.
   17521.1  114138.
   17531.1  114156.
   17541.2  114174.
   17551.3  114192.
   17561.4  114210.
   17571.5  114228.
   17581.6  114246.
   17591.7  114264.
   17601.8  114282.
   17611.9  114300.
   17622.0  114318.
   17632.1  114335.
   17642.2  114353.
   17652.4  114371.
   17662.5  114388.
   17672.7  114406.
   17682.8  114423.
   17693.0  114441.
   17703.1  114458.
   17713.3  114476.
   17723.5  114493.
   17733.7  114511.
   17743.9  114528.
   17754.1  114545.
   17764.3  114562.
   17774.5  114580.
   17784.7  114597.
   17794.9  114614.
   17805.1  114631.
   17815.4  114648.
   17825.6  114665.
   17835.8  114682.
   17846.1  114699.
   17856.3  114715.
   17866.6  114732.
   17876.9  114749.
   17887.1  114766.
   17897.4  114782.
   17907.7  114799.
   17918.0  114815.
   17928.3  114832.
   17938.6  114849.
   17948.9  114865.
   17959.2  114881.
   17969.5  114898.
   17979.8  114914.
   17990.2  114930.
   18000.5  114947.
   18010.8  114963.
   18021.2  114979.
   18031.5  114995.
   18041.9  115011.
   18052.3  115027.
   18062.6  115043.
   18073.0  115059.
   18083.4  115075.
   18093.8  115091.
   18104.2  115107.
   18114.6  115123.
   18125.0  115139.
   18135.4  115154.
   18145.8  115170.
   18156.2  115186.
   18166.7  115201.
   18177.1  115217.
   18187.6  115232.
   18198.0  115248.
   18208.5  115263.
   18218.9  115279.
   18229.4  115294.
   18239.9  115309.
   18250.3  115325.
   18260.8  115340.
   18271.3  115355.
   18281.8  115370.
   18292.3  115385.
   18302.8  115400.
   18313.3  115415.
   18323.9  115430.
   18334.4  115445.
   18344.9  115460.
   18355.5  115475.
   18366.0  115490.
   18376.6  115505.
   18387.1  115520.
   18397.7  115534.
   18408.3  115549.
   18418.8  115564.
   18429.4  115578.
   18440.0  115593.
   18450.6  115607.
   18461.2  115622.
   18471.8  115636.
   18482.4  115651.
   18493.0  115665.
   18503.7  115680.
   18514.3  115694.
   18524.9  115708.
   18535.6  115722.
   18546.2  115737.
   18556.9  115751.
   18567.5  115765.
   18578.2  115779.
   18588.9  115793.
   18599.6  115807.
   18610.2  115821.
   18620.9  115835.
   18631.6  115849.
   18642.3  115863.
   18653.1  115876.
   18663.8  115890.
   18674.5  115904.
   18685.2  115918.
   18696.0  115931.
   18706.7  115945.
   18717.4  115958.
   18728.2  115972.
   18739.0  115986.
   18749.7  115999.
   18760.5  116012.
   18771.3  116026.
   18782.1  116039.
   18792.9  116053.
   18803.6  116066.
   18814.5  116079.
   18825.3  116092.
   18836.1  116105.
   18846.9  116119.
   18857.7  116132.
   18868.6  116145.
   18879.4  116158.
   18890.2  116171.
   18901.1  116184.
   18912.0  116197.
   18922.8  116209.
   18933.7  116222.
   18944.6  116235.
   18955.5  116248.
   18966.4  116261.
   18977.2  116273.
   18988.2  116286.
   18999.1  116299.
   19010.0  116311.
   19020.9  116324.
   19031.8  116336.
   19042.8  116349.
   19053.7  116361.
   19064.6  116374.
   19075.6  116386.
   19086.6  116398.
   19097.5  116411.
   19108.5  116423.
   19119.5  116435.
   19130.5  116447.
   19141.5  116459.
   19152.4  116471.
   19163.5  116484.
   19174.5  116496.
   19185.5  116508.
   19196.5  116520.
   19207.5  116532.
   19218.6  116543.
   19229.6  116555.
   19240.7  116567.
   19251.7  116579.
   19262.8  116591.
   19273.8  116602.
   19284.9  116614.
   19296.0  116626.
   19307.1  116637.
   19318.2  116649.
   19329.3  116661.
   19340.4  116672.
   19351.5  116684.
   19362.6  116695.
   19373.7  116706.
   19384.9  116718.
   19396.0  116729.
   19407.1  116740.
   19418.3  116752.
   19429.4  116763.
   19440.6  116774.
   19451.8  116785.
   19463.0  116796.
   19474.1  116808.
   19485.3  116819.
   19496.5  116830.
   19507.7  116841.
   19518.9  116852.
   19530.1  116863.
   19541.4  116873.
   19552.6  116884.
   19563.8  116895.
   19575.1  116906.
   19586.3  116917.
   19597.6  116927.
   19608.8  116938.
   19620.1  116949.
   19631.4  116959.
   19642.6  116970.
   19653.9  116981.
   19665.2  116991.
   19676.5  117002.
   19687.8  117012.
   19699.1  117022.
   19710.4  117033.
   19721.8  117043.
   19733.1  117053.
   19744.4  117064.
   19755.8  117074.
   19767.1  117084.
   19778.5  117095.
   19789.9  117107.
   19801.2  117118.
   19812.6  117129.
   19824.0  117140.
   19835.4  117151.
   19846.8  117162.
   19858.2  117173.
   19869.6  117184.
   19881.0  117195.
   19892.4  117206.
   19903.8  117217.
   19915.3  117228.
   19926.7  117239.
   19938.2  117249.
   19949.6  117260.
   19961.1  117271.
   19972.6  117281.
   19984.0  117292.
   19995.5  117302.
   20007.0  117317.
   20018.5  117333.
   20030.0  117350.
   20038.9  117363.
   20047.9  117375.
   20056.8  117388.
   20065.7  117401.
   20074.7  117414.
   20083.6  117426.
   20092.6  117439.
   20101.5  117451.
   20110.5  117463.
   20119.5  117475.
   20128.4  117488.
   20137.4  117500.
   20146.4  117512.
   20155.4  117524.
   20164.4  117536.
   20173.3  117548.
   20182.3  117560.
   20191.3  117572.
   20200.3  117584.
   20209.3  117596.
   20218.3  117608.
   20227.4  117620.
   20236.4  117632.
   20245.4  117644.
   20254.4  117656.
   20263.5  117668.
   20272.5  117679.
   20281.5  117691.
   20290.6  117703.
   20299.6  117715.
   20308.7  117727.
   20317.7  117738.
   20326.8  117750.
   20335.8  117762.
   20344.9  117774.
   20354.0  117785.
   20363.0  117797.
   20372.1  117809.
   20381.2  117820.
   20390.3  117832.
   20399.4  117844.
   20408.5  117855.
   20417.6  117867.
   20426.7  117878.
   20435.8  117890.
   20444.9  117902.
   20454.0  117913.
   20463.1  117925.
   20472.2  117936.
   20481.4  117947.
   20490.5  117959.
   20499.6  117970.
   20508.8  117982.
   20517.9  117993.
   20527.1  118004.
   20536.2  118016.
   20545.4  118027.
   20554.5  118039.
   20563.7  118050.
   20572.9  118061.
   20582.0  118072.
   20591.2  118084.
   20600.4  118095.
   20609.6  118106.
   20618.8  118117.
   20627.9  118129.
   20637.1  118140.
   20646.3  118151.
   20655.5  118162.
   20664.8  118173.
   20674.0  118184.
   20683.2  118195.
   20692.4  118206.
   20701.6  118217.
   20710.8  118228.
   20720.1  118239.
   20729.3  118250.
   20738.6  118261.
   20747.8  118272.
   20757.1  118283.
   20766.3  118294.
   20775.6  118305.
   20784.8  118316.
   20794.1  118327.
   20803.4  118338.
   20812.6  118349.
   20821.9  118360.
   20831.2  118370.
   20840.5  118381.
   20849.8  118392.
   20859.1  118403.
   20868.4  118414.
   20877.7  118424.
   20887.0  118435.
   20896.3  118446.
   20905.6  118456.
   20914.9  118467.
   20924.2  118478.
   20933.6  118488.
   20942.9  118499.
   20952.2  118510.
   20961.6  118520.
   20970.9  118531.
   20980.3  118541.
   20989.6  118552.
   20999.0  118562.
   21008.3  118573.
   21017.7  118583.
   21027.1  118594.
   21036.5  118604.
   21045.8  118615.
   21055.2  118625.
   21064.6  118636.
   21074.0  118646.
   21083.4  118656.
   21092.8  118667.
   21102.2  118677.
   21111.6  118687.
   21121.0  118698.
   21130.4  118708.
   21139.8  118718.
   21149.3  118729.
   21158.7  118739.
   21168.1  118749.
   21177.6  118759.
   21187.0  118770.
   21196.4  118780.
   21205.9  118790.
   21215.3  118800.
   21224.8  118810.
   21234.3  118820.
   21243.7  118830.
   21253.2  118841.
   21262.7  118851.
   21272.2  118861.
   21281.6  118871.
   21291.1  118881.
   21300.6  118891.
   21310.1  118901.
   21319.6  118911.
   21329.1  118921.
   21338.6  118931.
   21348.1  118941.
   21357.7  118951.
   21367.2  118960.
   21376.7  118970.
   21386.2  118980.
   21395.8  118990.
   21405.3  119000.
   21414.8  119010.
   21424.4  119020.
   21433.9  119029.
   21443.5  119039.
   21453.1  119049.
   21462.6  119059.
   21472.2  119068.
   21481.8  119078.
   21491.3  119088.
   21500.9  119098.
   21510.5  119107.
   21520.1  119117.
   21529.7  119127.
   21539.3  119136.
   21548.9  119146.
   21558.5  119155.
   21568.1  119165.
   21577.7  119175.
   21587.3  119184.
   21597.0  119194.
   21606.6  119203.
   21616.2  119213.
   21625.9  119222.
   21635.5  119232.
   21645.1  119241.
   21654.8  119251.
   21664.4  119260.
   21674.1  119270.
   21683.8  119279.
   21693.4  119288.
   21703.1  119298.
   21712.8  119307.
   21722.5  119316.
   21732.1  119326.
   21741.8  119335.
   21751.5  119344.
   21761.2  119354.
   21770.9  119363.
   21780.6  119372.
   21790.3  119382.
   21800.0  119391.
   21809.8  119400.
   21819.5  119409.
   21829.2  119418.
   21838.9  119428.
   21848.7  119437.
   21858.4  119446.
   21868.2  119455.
   21877.9  119464.
   21887.7  119473.
   21897.4  119482.
   21907.2  119491.
   21916.9  119500.
   21926.7  119509.
   21936.5  119519.
   21946.3  119528.
   21956.1  119537.
   21965.8  119546.
   21975.6  119555.
   21985.4  119563.
   21995.2  119572.
   22005.0  119581.
   22014.8  119590.
   22024.7  119599.
   22034.5  119608.
   22044.3  119617.
   22054.1  119626.
   22064.0  119635.
   22073.8  119643.
   22083.6  119652.
   22093.5  119661.
   22103.3  119670.
   22113.2  119679.
   22123.0  119687.
   22132.9  119696.
   22142.8  119705.
   22152.6  119714.
   22162.5  119722.
   22172.4  119731.
   22182.3  119740.
   22192.2  119748.
   22202.1  119757.
   22212.0  119766.
   22221.9  119774.
   22231.8  119783.
   22241.7  119792.
   22251.6  119800.
   22261.5  119809.
   22271.4  119817.
   22281.4  119826.
   22291.3  119834.
   22301.2  119843.
   22311.2  119851.
   22321.1  119860.
   22331.1  119868.
   22341.0  119877.
   22351.0  119885.
   22360.9  119894.
   22370.9  119902.
   22380.9  119910.
   22390.9  119919.
   22400.8  119927.
   22410.8  119936.
   22420.8  119944.
   22430.8  119952.
   22440.8  119961.
   22450.8  119969.
   22460.8  119977.
   22470.8  119985.
   22480.9  119994.
   22490.9  120002.
   22500.9  120010.
   22510.9  120018.
   22521.0  120027.
   22531.0  120035.
   22541.1  120043.
   22551.1  120051.
   22561.2  120059.
   22571.2  120068.
   22581.3  120076.
   22591.3  120084.
   22601.4  120092.
   22611.5  120100.
   22621.6  120108.
   22631.7  120116.
   22641.7  120124.
   22651.8  120132.
   22661.9  120140.
   22672.0  120148.
   22682.1  120156.
   22692.3  120164.
   22702.4  120172.
   22712.5  120180.
   22722.6  120188.
   22732.7  120196.
   22742.9  120204.
   22753.0  120212.
   22763.2  120220.
   22773.3  120228.
   22783.5  120236.
   22793.6  120243.
   22803.8  120251.
   22813.9  120259.
   22824.1  120267.
   22834.3  120275.
   22844.5  120283.
   22854.7  120290.
   22864.8  120298.
   22875.0  120306.
   22885.2  120314.
   22895.4  120321.
   22905.6  120329.
   22915.9  120337.
   22926.1  120344.
   22936.3  120352.
   22946.5  120360.
   22956.7  120367.
   22967.0  120375.
   22977.2  120383.
   22987.5  120390.
   22997.7  120398.
   23008.0  120406.
   23018.2  120413.
   23028.5  120421.
   23038.7  120428.
   23049.0  120436.
   23059.3  120443.
   23069.6  120451.
   23079.8  120458.
   23090.1  120466.
   23100.4  120473.
   23110.7  120481.
   23121.0  120488.
   23131.3  120496.
   23141.7  120503.
   23152.0  120511.
   23162.3  120518.
   23172.6  120525.
   23182.9  120533.
   23193.3  120540.
   23203.6  120548.
   23214.0  120555.
   23224.3  120562.
   23234.7  120570.
   23245.0  120577.
   23255.4  120584.
   23265.8  120591.
   23276.1  120599.
   23286.5  120606.
   23296.9  120613.
   23307.3  120620.
   23317.7  120628.
   23328.0  120635.
   23338.4  120642.
   23348.9  120649.
   23359.3  120656.
   23369.7  120664.
   23380.1  120671.
   23390.5  120678.
   23400.9  120685.
   23411.4  120692.
   23421.8  120699.
   23432.2  120706.
   23442.7  120713.
   23453.1  120720.
   23463.6  120727.
   23474.1  120735.
   23484.5  120742.
   23495.0  120749.
   23505.5  120756.
   23515.9  120763.
   23526.4  120770.
   23536.9  120777.
   23547.4  120784.
   23557.9  120790.
   23568.4  120797.
   23578.9  120804.
   23589.4  120811.
   23599.9  120818.
   23610.5  120825.
   23621.0  120832.
   23631.5  120839.
   23642.1  120846.
   23652.6  120853.
   23663.1  120859.
   23673.7  120866.
   23684.2  120873.
   23694.8  120880.
   23705.4  120887.
   23715.9  120893.
   23726.5  120900.
   23737.1  120907.
   23747.7  120914.
   23758.2  120920.
   23768.8  120927.
   23779.4  120934.
   23790.0  120940.
   23800.6  120947.
   23811.2  120954.
   23821.9  120960.
   23832.5  120967.
   23843.1  120974.
   23853.7  120980.
   23864.4  120987.
   23875.0  120994.
   23885.7  121000.
   23896.3  121007.
   23907.0  121013.
   23917.6  121020.
   23928.3  121026.
   23938.9  121033.
   23949.6  121040.
   23960.3  121046.
   23971.0  121053.
   23981.7  121059.
   23992.3  121066.
   24003.0  121072.
   24013.7  121078.
   24024.4  121085.
   24035.2  121091.
   24045.9  121098.
   24056.6  121104.
   24067.3  121111.
   24078.0  121117.
   24088.8  121123.
   24099.5  121130.
   24110.3  121136.
   24121.0  121142.
   24131.8  121149.
   24142.5  121155.
   24153.3  121161.
   24164.0  121168.
   24174.8  121174.
   24185.6  121180.
   24196.4  121187.
   24207.2  121193.
   24218.0  121199.
   24228.7  121205.
   24239.5  121212.
   24250.4  121218.
   24261.2  121224.
   24272.0  121230.
   24282.8  121236.
   24293.6  121243.
   24304.5  121249.
   24315.3  121255.
   24326.1  121261.
   24337.0  121267.
   24347.8  121273.
   24358.7  121279.
   24369.5  121286.
   24380.4  121292.
   24391.3  121298.
   24402.1  121304.
   24413.0  121310.
   24423.9  121316.
   24434.8  121322.
   24445.7  121328.
   24456.6  121334.
   24467.5  121340.
   24478.4  121346.
   24489.3  121352.
   24500.2  121358.
   24511.1  121364.
   24522.1  121370.
   24533.0  121376.
   24543.9  121382.
   24554.9  121388.
   24565.8  121394.
   24576.8  121399.
   24587.7  121405.
   24598.7  121411.
   24609.7  121417.
   24620.6  121423.
   24631.6  121429.
   24642.6  121435.
   24653.6  121440.
   24664.6  121446.
   24675.6  121452.
   24686.6  121458.
   24697.6  121464.
   24708.6  121469.
   24719.6  121475.
   24730.6  121481.
   24741.6  121487.
   24752.7  121492.
   24763.7  121498.
   24774.7  121504.
   24785.8  121510.
   24796.8  121515.
   24807.9  121521.
   24818.9  121527.
   24830.0  121532.
   24841.1  121538.
   24852.1  121544.
   24863.2  121549.
   24874.3  121555.
   24885.4  121561.
   24896.5  121566.
   24907.6  121572.
   24918.7  121577.
   24929.8  121583.
   24940.9  121588.
   24952.0  121594.
   24963.2  121600.
   24974.3  121605.
   24985.4  121611.
   24996.6  121616.
   25007.7  121622.
   25018.8  121627.
   25030.0  121633.
   25039.1  121637.
   25048.1  121642.
   25057.2  121646.
   25066.3  121650.
   25075.4  121655.
   25084.5  121659.
   25093.5  121664.
   25102.6  121668.
   25111.7  121672.
   25120.8  121677.
   25129.9  121681.
   25139.0  121686.
   25148.1  121690.
   25157.3  121694.
   25166.4  121699.
   25175.5  121703.
   25184.6  121707.
   25193.7  121712.
   25202.9  121716.
   25212.0  121721.
   25221.1  121725.
   25230.3  121729.
   25239.4  121733.
   25248.6  121738.
   25257.7  121742.
   25266.9  121746.
   25276.0  121751.
   25285.2  121755.
   25294.3  121759.
   25303.5  121763.
   25312.7  121768.
   25321.8  121772.
   25331.0  121776.
   25340.2  121780.
   25349.4  121785.
   25358.5  121789.
   25367.7  121793.
   25376.9  121797.
   25386.1  121802.
   25395.3  121806.
   25404.5  121810.
   25413.7  121814.
   25422.9  121818.
   25432.1  121823.
   25441.4  121827.
   25450.6  121831.
   25459.8  121835.
   25469.0  121839.
   25478.2  121843.
   25487.5  121848.
   25496.7  121852.
   25506.0  121856.
   25515.2  121860.
   25524.4  121864.
   25533.7  121868.
   25542.9  121872.
   25552.2  121876.
   25561.4  121881.
   25570.7  121885.
   25580.0  121889.
   25589.2  121893.
   25598.5  121897.
   25607.8  121901.
   25617.1  121905.
   25626.3  121909.
   25635.6  121913.
   25644.9  121917.
   25654.2  121921.
   25663.5  121925.
   25672.8  121929.
   25682.1  121933.
   25691.4  121937.
   25700.7  121941.
   25710.0  121945.
   25719.3  121949.
   25728.7  121953.
   25738.0  121957.
   25747.3  121961.
   25756.6  121965.
   25766.0  121969.
   25775.3  121973.
   25784.6  121977.
   25794.0  121981.
   25803.3  121985.
   25812.7  121989.
   25822.0  121993.
   25831.4  121997.
   25840.7  122001.
   25850.1  122005.
   25859.5  122008.
   25868.8  122012.
   25878.2  122016.
   25887.6  122020.
   25897.0  122024.
   25906.4  122028.
   25915.7  122032.
   25925.1  122036.
   25934.5  122040.
   25943.9  122043.
   25953.3  122047.
   25962.7  122051.
   25972.1  122055.
   25981.5  122059.
   25991.0  122063.
   26000.4  122066.
   26009.8  122070.
   26019.2  122074.
   26028.6  122078.
   26038.1  122082.
   26047.5  122085.
   26056.9  122089.
   26066.4  122093.
   26075.8  122097.
   26085.3  122100.
   26094.7  122104.
   26104.2  122108.
   26113.6  122112.
   26123.1  122115.
   26132.6  122119.
   26142.0  122123.
   26151.5  122127.
   26161.0  122130.
   26170.5  122134.
   26179.9  122138.
   26189.4  122142.
   26198.9  122145.
   26208.4  122149.
   26217.9  122153.
   26227.4  122156.
   26236.9  122160.
   26246.4  122164.
   26255.9  122167.
   26265.4  122171.
   26274.9  122175.
   26284.5  122178.
   26294.0  122182.
   26303.5  122186.
   26313.0  122189.
   26322.6  122193.
   26332.1  122196.
   26341.7  122200.
   26351.2  122204.
   26360.7  122207.
   26370.3  122211.
   26379.9  122214.
   26389.4  122218.
   26399.0  122222.
   26408.5  122225.
   26418.1  122229.
   26427.7  122232.
   26437.2  122236.
   26446.8  122239.
   26456.4  122243.
   26466.0  122247.
   26475.6  122250.
   26485.2  122254.
   26494.8  122257.
   26504.4  122261.
   26514.0  122264.
   26523.6  122268.
   26533.2  122271.
   26542.8  122275.
   26552.4  122278.
   26562.0  122282.
   26571.7  122285.
   26581.3  122289.
   26590.9  122292.
   26600.6  122296.
   26610.2  122299.
   26619.8  122303.
   26629.5  122306.
   26639.1  122309.
   26648.8  122313.
   26658.4  122316.
   26668.1  122320.
   26677.8  122323.
   26687.4  122327.
   26697.1  122330.
   26706.8  122333.
   26716.4  122337.
   26726.1  122340.
   26735.8  122344.
   26745.5  122347.
   26755.2  122350.
   26764.9  122354.
   26774.6  122357.
   26784.3  122360.
   26794.0  122364.
   26803.7  122367.
   26813.4  122371.
   26823.1  122374.
   26832.8  122377.
   26842.5  122381.
   26852.3  122384.
   26862.0  122387.
   26871.7  122391.
   26881.5  122394.
   26891.2  122397.
   26901.0  122400.
   26910.7  122404.
   26920.5  122407.
   26930.2  122410.
   26940.0  122414.
   26949.7  122417.
   26959.5  122420.
   26969.3  122423.
   26979.0  122427.
   26988.8  122430.
   26998.6  122433.
   27008.4  122437.
   27018.1  122440.
   27027.9  122443.
   27037.7  122446.
   27047.5  122449.
   27057.3  122453.
   27067.1  122456.
   27076.9  122459.
   27086.7  122462.
   27096.6  122465.
   27106.4  122469.
   27116.2  122472.
   27126.0  122475.
   27135.8  122478.
   27145.7  122481.
   27155.5  122485.
   27165.4  122488.
   27175.2  122491.
   27185.0  122494.
   27194.9  122497.
   27204.7  122500.
   27214.6  122504.
   27224.5  122507.
   27234.3  122510.
   27244.2  122513.
   27254.1  122516.
   27263.9  122519.
   27273.8  122522.
   27283.7  122525.
   27293.6  122528.
   27303.5  122532.
   27313.4  122535.
   27323.3  122538.
   27333.2  122541.
   27343.1  122544.
   27353.0  122547.
   27362.9  122550.
   27372.8  122553.
   27382.7  122556.
   27392.6  122559.
   27402.6  122562.
   27412.5  122565.
   27422.4  122568.
   27432.3  122571.
   27442.3  122574.
   27452.2  122577.
   27462.2  122580.
   27472.1  122583.
   27482.1  122586.
   27492.0  122589.
   27502.0  122592.
   27512.0  122595.
   27521.9  122598.
   27531.9  122601.
   27541.9  122604.
   27551.9  122607.
   27561.8  122610.
   27571.8  122613.
   27581.8  122616.
   27591.8  122619.
   27601.8  122622.
   27611.8  122625.
   27621.8  122628.
   27631.8  122631.
   27641.8  122634.
   27651.8  122637.
   27661.9  122640.
   27671.9  122643.
   27681.9  122646.
   27691.9  122649.
   27702.0  122651.
   27712.0  122654.
   27722.0  122657.
   27732.1  122660.
   27742.1  122663.
   27752.2  122666.
   27762.2  122669.
   27772.3  122672.
   27782.4  122674.
   27792.4  122677.
   27802.5  122680.
   27812.6  122683.
   27822.7  122686.
   27832.7  122689.
   27842.8  122692.
   27852.9  122694.
   27863.0  122697.
   27873.1  122700.
   27883.2  122703.
   27893.3  122706.
   27903.4  122709.
   27913.5  122711.
   27923.6  122714.
   27933.7  122717.
   27943.9  122720.
   27954.0  122722.
   27964.1  122725.
   27974.2  122728.
   27984.4  122731.
   27994.5  122734.
   28004.7  122736.
   28014.8  122739.
   28025.0  122742.
   28035.1  122745.
   28045.3  122747.
   28055.4  122750.
   28065.6  122753.
   28075.8  122756.
   28085.9  122758.
   28096.1  122761.
   28106.3  122764.
   28116.5  122766.
   28126.7  122769.
   28136.8  122772.
   28147.0  122775.
   28157.2  122777.
   28167.4  122780.
   28177.6  122783.
   28187.9  122785.
   28198.1  122788.
   28208.3  122791.
   28218.5  122793.
   28228.7  122796.
   28239.0  122799.
   28249.2  122801.
   28259.4  122804.
   28269.7  122807.
   28279.9  122809.
   28290.2  122812.
   28300.4  122815.
   28310.7  122817.
   28320.9  122820.
   28331.2  122822.
   28341.4  122825.
   28351.7  122828.
   28362.0  122830.
   28372.3  122833.
   28382.5  122835.
   28392.8  122838.
   28403.1  122841.
   28413.4  122843.
   28423.7  122846.
   28434.0  122848.
   28444.3  122851.
   28454.6  122853.
   28464.9  122856.
   28475.2  122859.
   28485.5  122861.
   28495.9  122864.
   28506.2  122866.
   28516.5  122869.
   28526.8  122871.
   28537.2  122874.
   28547.5  122876.
   28557.9  122879.
   28568.2  122881.
   28578.6  122884.
   28588.9  122886.
   28599.3  122889.
   28609.6  122891.
   28620.0  122894.
   28630.4  122896.
   28640.7  122899.
   28651.1  122901.
   28661.5  122904.
   28671.9  122906.
   28682.3  122909.
   28692.7  122911.
   28703.1  122914.
   28713.5  122916.
   28723.9  122919.
   28734.3  122921.
   28744.7  122924.
   28755.1  122926.
   28765.5  122928.
   28775.9  122931.
   28786.4  122933.
   28796.8  122936.
   28807.2  122938.
   28817.7  122941.
   28828.1  122943.
   28838.5  122945.
   28849.0  122948.
   28859.4  122950.
   28869.9  122953.
   28880.4  122955.
   28890.8  122957.
   28901.3  122960.
   28911.8  122962.
   28922.2  122965.
   28932.7  122967.
   28943.2  122969.
   28953.7  122972.
   28964.2  122974.
   28974.7  122976.
   28985.2  122979.
   28995.7  122981.
   29006.2  122983.
   29016.7  122986.
   29027.2  122988.
   29037.7  122990.
   29048.2  122993.
   29058.8  122995.
   29069.3  122997.
   29079.8  123000.
   29090.4  123002.
   29100.9  123004.
   29111.4  123007.
   29122.0  123009.
   29132.5  123011.
   29143.1  123014.
   29153.6  123016.
   29164.2  123018.
   29174.8  123020.
   29185.3  123023.
   29195.9  123025.
   29206.5  123027.
   29217.1  123029.
   29227.7  123032.
   29238.3  123034.
   29248.8  123036.
   29259.4  123038.
   29270.0  123041.
   29280.7  123043.
   29291.3  123045.
   29301.9  123047.
   29312.5  123050.
   29323.1  123052.
   29333.7  123054.
   29344.4  123056.
   29355.0  123059.
   29365.6  123061.
   29376.3  123063.
   29386.9  123065.
   29397.6  123067.
   29408.2  123070.
   29418.9  123072.
   29429.5  123074.
   29440.2  123076.
   29450.9  123078.
   29461.5  123080.
   29472.2  123083.
   29482.9  123085.
   29493.6  123087.
   29504.2  123089.
   29514.9  123091.
   29525.6  123093.
   29536.3  123096.
   29547.0  123098.
   29557.7  123100.
   29568.4  123102.
   29579.2  123104.
   29589.9  123106.
   29600.6  123108.
   29611.3  123110.
   29622.0  123113.
   29632.8  123115.
   29643.5  123117.
   29654.3  123119.
   29665.0  123121.
   29675.7  123123.
   29686.5  123125.
   29697.3  123127.
   29708.0  123129.
   29718.8  123131.
   29729.5  123133.
   29740.3  123136.
   29751.1  123138.
   29761.9  123140.
   29772.7  123142.
   29783.4  123144.
   29794.2  123146.
   29805.0  123148.
   29815.8  123150.
   29826.6  123152.
   29837.4  123154.
   29848.2  123156.
   29859.1  123158.
   29869.9  123160.
   29880.7  123162.
   29891.5  123164.
   29902.4  123166.
   29913.2  123168.
   29924.0  123170.
   29934.9  123172.
   29945.7  123174.
   29956.6  123176.
   29967.4  123178.
   29978.3  123180.
   29989.1  123182.
   30000.0  123184.
