 W Density=19.3, Angle=90.deg
 Photon Energy (eV), Atten Length (microns)
   30.0000  1.606545E-02
   30.3089  1.647491E-02
   30.6210  1.689476E-02
   30.9363  1.731121E-02
   31.2548  1.772639E-02
   31.5766  1.809807E-02
   31.9018  1.847753E-02
   32.2302  1.886492E-02
   32.5621  1.922336E-02
   32.8974  1.955013E-02
   33.2361  1.981463E-02
   33.5783  2.008269E-02
   33.9241  2.035438E-02
   34.2734  2.062975E-02
   34.6263  2.072759E-02
   34.9828  2.070620E-02
   35.3430  2.045566E-02
   35.7069  2.020812E-02
   36.0746  1.996355E-02
   36.4460  1.972198E-02
   36.8213  1.909425E-02
   37.2004  1.788093E-02
   37.5835  1.659769E-02
   37.9705  1.534532E-02
   38.3614  1.410329E-02
   38.7564  1.296187E-02
   39.1555  1.191286E-02
   39.5586  1.094850E-02
   39.9660  9.885610E-03
   40.3775  8.795382E-03
   40.7932  8.190063E-03
   41.2133  7.853113E-03
   41.6376  7.839236E-03
   42.0663  7.825335E-03
   42.4995  7.884607E-03
   42.9371  8.136240E-03
   43.3792  8.430911E-03
   43.8258  8.781915E-03
   44.2771  9.336141E-03
   44.7330  9.684314E-03
   45.1936  9.868350E-03
   45.6589  9.970944E-03
   46.1291  9.965193E-03
   46.6041  9.827106E-03
   47.0839  9.535426E-03
   47.5687  9.200659E-03
   48.0585  8.811518E-03
   48.5534  8.406880E-03
   49.0533  8.010699E-03
   49.5584  7.633186E-03
   50.0687  7.317030E-03
   50.5842  7.048549E-03
   51.1050  6.944345E-03
   51.6312  6.878381E-03
   52.1629  6.851770E-03
   52.7000  6.928216E-03
   53.2426  7.014746E-03
   53.7908  7.102360E-03
   54.3447  7.227592E-03
   54.9043  7.381804E-03
   55.4696  7.599786E-03
   56.0407  7.824244E-03
   56.6178  8.055348E-03
   57.2007  8.293249E-03
   57.7897  8.538162E-03
   58.3847  8.790307E-03
   58.9859  9.049919E-03
   59.5933  9.317184E-03
   60.2069  9.592310E-03
   60.8268  9.875598E-03
   61.4531  1.016726E-02
   62.0859  1.046750E-02
   62.7251  1.077664E-02
   63.3710  1.109493E-02
   64.0235  1.142258E-02
   64.6827  1.177308E-02
   65.3487  1.214510E-02
   66.0216  1.255970E-02
   66.7014  1.298868E-02
   67.3882  1.343224E-02
   68.0821  1.389109E-02
   68.7831  1.436560E-02
   69.4913  1.485630E-02
   70.2068  1.536375E-02
   70.9297  1.588891E-02
   71.6601  1.643410E-02
   72.3979  1.703997E-02
   73.1434  1.769800E-02
   73.8965  1.838150E-02
   74.6574  1.909135E-02
   75.4261  1.982863E-02
   76.2027  2.059435E-02
   76.9874  2.138967E-02
   77.7801  2.221571E-02
   78.5809  2.307364E-02
   79.3901  2.396468E-02
   80.2075  2.489016E-02
   81.0334  2.569893E-02
   81.8677  2.643960E-02
   82.7107  2.716538E-02
   83.5623  2.791107E-02
   84.4228  2.867723E-02
   85.2920  2.946445E-02
   86.1702  3.015693E-02
   87.0575  3.065961E-02
   87.9539  3.106831E-02
   88.8595  3.145636E-02
   89.7745  3.184927E-02
   90.6988  3.224707E-02
   91.6327  3.260806E-02
   92.5762  3.259455E-02
   93.5295  3.256863E-02
   94.4925  3.253191E-02
   95.4655  3.249520E-02
   96.4484  3.245854E-02
   97.4415  3.242196E-02
   98.4448  3.233931E-02
   99.4585  3.224407E-02
   100.483  3.213904E-02
   101.517  3.203424E-02
   102.562  3.192972E-02
   103.619  3.182544E-02
   104.685  3.172170E-02
   105.763  3.161843E-02
   106.852  3.151517E-02
   107.953  3.141227E-02
   109.064  3.130979E-02
   110.187  3.117708E-02
   111.322  3.103417E-02
   112.468  3.087766E-02
   113.626  3.072191E-02
   114.796  3.056692E-02
   115.978  3.041261E-02
   117.172  3.025922E-02
   118.379  3.010672E-02
   119.597  2.995488E-02
   120.829  2.980370E-02
   122.073  2.965317E-02
   123.330  2.950371E-02
   124.600  2.935497E-02
   125.883  2.920682E-02
   127.179  2.905951E-02
   128.488  2.891615E-02
   129.811  2.878554E-02
   131.148  2.866792E-02
   132.498  2.855763E-02
   133.863  2.844744E-02
   135.241  2.833774E-02
   136.634  2.822851E-02
   138.040  2.811975E-02
   139.462  2.801136E-02
   140.898  2.790329E-02
   142.349  2.779585E-02
   143.814  2.768884E-02
   145.295  2.758214E-02
   146.791  2.747584E-02
   148.303  2.736995E-02
   149.830  2.726458E-02
   151.372  2.716968E-02
   152.931  2.708348E-02
   154.506  2.701776E-02
   156.096  2.695254E-02
   157.704  2.688734E-02
   159.328  2.682225E-02
   160.968  2.675736E-02
   162.626  2.669272E-02
   164.300  2.665559E-02
   165.992  2.663019E-02
   167.701  2.660903E-02
   169.428  2.658787E-02
   171.172  2.656669E-02
   172.935  2.654545E-02
   174.715  2.654554E-02
   176.514  2.657176E-02
   178.332  2.660289E-02
   180.168  2.663468E-02
   182.023  2.666642E-02
   183.897  2.669818E-02
   185.791  2.672665E-02
   187.704  2.674048E-02
   189.637  2.674973E-02
   191.589  2.675613E-02
   193.562  2.676259E-02
   195.555  2.676910E-02
   197.568  2.677567E-02
   199.603  2.678217E-02
   201.658  2.678866E-02
   203.734  2.679516E-02
   205.832  2.681441E-02
   207.952  2.683783E-02
   210.093  2.686370E-02
   212.256  2.688961E-02
   214.441  2.691556E-02
   216.650  2.694152E-02
   218.880  2.696754E-02
   221.134  2.699358E-02
   223.411  2.701961E-02
   225.711  2.704570E-02
   228.035  2.707186E-02
   230.383  2.709801E-02
   232.756  2.712415E-02
   235.152  2.715024E-02
   237.573  2.717648E-02
   240.020  2.720278E-02
   242.491  2.722899E-02
   244.988  2.725527E-02
   247.510  2.728162E-02
   250.059  2.730790E-02
   252.634  2.733422E-02
   255.235  2.736064E-02
   257.863  2.738700E-02
   260.518  2.741341E-02
   263.201  2.743994E-02
   265.911  2.746643E-02
   268.649  2.751953E-02
   271.415  2.771332E-02
   274.209  2.791316E-02
   277.033  2.811765E-02
   279.885  2.832365E-02
   282.767  2.853114E-02
   285.679  2.874013E-02
   288.620  2.895064E-02
   291.592  2.916270E-02
   294.594  2.937638E-02
   297.628  2.959154E-02
   300.692  2.981008E-02
   303.788  3.003785E-02
   306.916  3.027702E-02
   310.077  3.052384E-02
   313.269  3.077272E-02
   316.495  3.102359E-02
   319.754  3.127651E-02
   323.046  3.153154E-02
   326.372  3.178860E-02
   329.733  3.204767E-02
   333.128  3.230897E-02
   336.558  3.257389E-02
   340.024  3.284590E-02
   343.525  3.312349E-02
   347.062  3.340508E-02
   350.635  3.368907E-02
   354.246  3.397551E-02
   357.893  3.426442E-02
   361.578  3.455577E-02
   365.301  3.484778E-02
   369.063  3.513955E-02
   372.863  3.538086E-02
   376.702  3.561327E-02
   380.581  3.584721E-02
   384.499  3.608267E-02
   388.459  3.631969E-02
   392.458  3.655829E-02
   396.499  3.679839E-02
   400.582  3.704005E-02
   404.707  3.728331E-02
   408.874  3.752823E-02
   413.084  3.777484E-02
   417.337  3.800857E-02
   421.634  3.824094E-02
   425.976  3.847326E-02
   430.362  3.870707E-02
   434.793  3.894231E-02
   439.270  3.917887E-02
   443.793  3.941683E-02
   448.362  3.966036E-02
   452.979  4.000657E-02
   457.643  4.039329E-02
   462.355  4.082597E-02
   467.116  4.129991E-02
   471.926  4.178339E-02
   476.785  4.227305E-02
   481.694  4.276862E-02
   486.654  4.327000E-02
   491.665  4.377703E-02
   496.727  4.428928E-02
   501.842  4.480722E-02
   507.009  4.533220E-02
   512.230  4.586723E-02
   517.504  4.641239E-02
   522.832  4.698938E-02
   528.216  4.759504E-02
   533.655  4.824198E-02
   539.150  4.891943E-02
   544.701  4.961102E-02
   550.310  5.031072E-02
   555.976  5.103225E-02
   561.701  5.176853E-02
   567.484  5.250425E-02
   573.327  5.316661E-02
   579.231  5.376663E-02
   585.195  5.433237E-02
   591.220  5.489194E-02
   597.308  5.544118E-02
   603.458  5.599592E-02
   609.672  5.655627E-02
   615.949  5.712247E-02
   622.291  5.770134E-02
   628.699  5.830700E-02
   635.172  5.902476E-02
   641.712  5.985977E-02
   648.320  6.078779E-02
   654.995  6.185639E-02
   661.740  6.294387E-02
   668.553  6.405057E-02
   675.437  6.511872E-02
   682.392  6.618053E-02
   689.418  6.722382E-02
   696.517  6.827804E-02
   703.689  6.936143E-02
   710.934  7.052770E-02
   718.254  7.174883E-02
   725.650  7.301334E-02
   733.122  7.429995E-02
   740.670  7.560945E-02
   748.297  7.694230E-02
   756.002  7.830001E-02
   763.786  7.968605E-02
   771.650  8.110457E-02
   779.596  8.258224E-02
   787.623  8.410425E-02
   795.733  8.568336E-02
   803.926  8.729248E-02
   812.204  8.893203E-02
   820.567  9.060278E-02
   829.016  9.230506E-02
   837.552  9.403948E-02
   846.176  9.581815E-02
   854.888  9.763622E-02
   863.691  9.949722E-02
   872.584  0.101403
   881.569  0.103349
   890.646  0.105331
   899.816  0.107353
   909.081  0.109414
   918.442  0.111515
   927.899  0.113676
   937.453  0.115896
   947.106  0.118169
   956.858  0.120491
   966.710  0.122865
   976.664  0.125286
   986.720  0.127757
   996.880  0.130282
   1007.14  0.132863
   1017.51  0.135509
   1027.99  0.138275
   1038.58  0.141110
   1049.27  0.144013
   1060.07  0.146998
   1070.99  0.150047
   1082.02  0.153160
   1093.16  0.156339
   1104.41  0.159584
   1115.79  0.162898
   1127.27  0.166283
   1138.88  0.169738
   1150.61  0.173267
   1162.46  0.176868
   1174.42  0.180544
   1186.52  0.184300
   1198.73  0.188133
   1211.08  0.192045
   1223.55  0.196041
   1236.15  0.200144
   1248.87  0.204375
   1261.73  0.208755
   1274.72  0.213265
   1287.85  0.217948
   1301.11  0.222732
   1314.51  0.227620
   1328.04  0.232618
   1341.72  0.237729
   1355.53  0.242955
   1369.49  0.248297
   1383.59  0.253757
   1397.84  0.259341
   1412.23  0.265047
   1426.77  0.270878
   1441.46  0.276839
   1456.30  0.282939
   1471.30  0.289181
   1486.45  0.295581
   1501.75  0.302160
   1517.22  0.308914
   1532.84  0.315831
   1548.62  0.322902
   1564.57  0.330131
   1580.68  0.337528
   1596.95  0.345094
   1613.40  0.352833
   1630.01  0.360744
   1646.79  0.368836
   1663.75  0.377120
   1680.88  0.385591
   1698.19  0.394251
   1715.67  0.403102
   1733.34  0.412207
   1751.18  0.421579
   1769.22  0.431188
   1787.43  0.441020
   1805.84  0.451076
   1824.43  0.151920
   1843.22  0.155020
   1862.20  0.158183
   1881.37  0.109156
   1900.74  0.111907
   1920.31  0.114727
   1940.09  0.117618
   1960.06  0.120582
   1980.24  0.123622
   2000.63  0.126738
   2021.23  0.129908
   2042.05  0.133179
   2063.07  0.136539
   2084.31  0.139982
   2105.78  0.143513
   2127.46  0.147130
   2149.36  0.150841
   2171.49  0.154647
   2193.85  0.158547
   2216.44  0.162545
   2239.26  0.166645
   2262.32  0.170850
   2285.62  0.150328
   2309.15  0.154356
   2332.93  0.158492
   2356.95  0.162742
   2381.22  0.167102
   2405.73  0.171578
   2430.51  0.176176
   2455.53  0.180898
   2480.81  0.185740
   2506.36  0.190713
   2532.17  0.195822
   2558.24  0.201063
   2584.58  0.193184
   2611.19  0.198209
   2638.08  0.203361
   2665.24  0.208642
   2692.68  0.214056
   2720.41  0.219614
   2748.42  0.225316
   2776.72  0.231165
   2805.31  0.237165
   2834.20  0.232725
   2863.38  0.238451
   2892.86  0.244328
   2922.65  0.250360
   2952.74  0.256546
   2983.15  0.262908
   3013.86  0.269431
   3044.89  0.276127
   3076.25  0.283005
   3107.92  0.290073
   3139.92  0.297327
   3172.25  0.304767
   3204.92  0.312408
   3237.92  0.320259
   3271.26  0.328306
   3304.94  0.336573
   3338.97  0.345059
   3373.35  0.353766
   3408.08  0.362704
   3443.17  0.371890
   3478.63  0.381303
   3514.45  0.390975
   3550.63  0.400911
   3587.19  0.411099
   3624.13  0.421558
   3661.44  0.432297
   3699.14  0.443315
   3737.23  0.454623
   3775.71  0.466239
   3814.59  0.478161
   3853.87  0.490392
   3893.55  0.502945
   3933.64  0.515831
   3974.14  0.529070
   4015.06  0.542660
   4056.40  0.556606
   4098.17  0.570922
   4140.37  0.585620
   4183.00  0.600706
   4226.07  0.616188
   4269.59  0.632085
   4313.55  0.648408
   4357.96  0.665161
   4402.83  0.682364
   4448.17  0.700019
   4493.97  0.718145
   4540.24  0.736755
   4586.99  0.755863
   4634.22  0.775479
   4681.94  0.795617
   4730.15  0.816292
   4778.85  0.837517
   4828.06  0.859310
   4877.77  0.881693
   4928.00  0.904674
   4978.74  0.928263
   5030.00  0.952472
   5036.95  0.955785
   5043.91  0.959111
   5050.87  0.962447
   5057.85  0.965794
   5064.83  0.969155
   5071.83  0.972526
   5078.84  0.975910
   5085.85  0.979305
   5092.88  0.982711
   5099.91  0.986133
   5106.96  0.989565
   5114.01  0.993011
   5121.07  0.996467
   5128.15  0.999935
   5135.23  1.00342
   5142.32  1.00691
   5149.43  1.01041
   5156.54  1.01393
   5163.66  1.01746
   5170.79  1.02101
   5177.94  1.02457
   5185.09  1.02814
   5192.25  1.03173
   5199.42  1.03532
   5206.60  1.03893
   5213.80  1.04255
   5221.00  1.04619
   5228.21  1.04983
   5235.43  1.05350
   5242.66  1.05717
   5249.90  1.06086
   5257.16  1.06456
   5264.42  1.06827
   5271.69  1.07199
   5278.97  1.07573
   5286.26  1.07948
   5293.56  1.08325
   5300.88  1.08703
   5308.20  1.09082
   5315.53  1.09463
   5322.87  1.09845
   5330.23  1.10229
   5337.59  1.10613
   5344.96  1.10999
   5352.34  1.11387
   5359.74  1.11776
   5367.14  1.12166
   5374.55  1.12558
   5381.98  1.12951
   5389.41  1.13345
   5396.85  1.13741
   5404.31  1.14139
   5411.77  1.14537
   5419.25  1.14937
   5426.73  1.15339
   5434.23  1.15742
   5441.74  1.16146
   5449.25  1.16552
   5456.78  1.16960
   5464.32  1.17369
   5471.87  1.17779
   5479.42  1.18191
   5486.99  1.18604
   5494.57  1.19018
   5502.16  1.19434
   5509.76  1.19852
   5517.37  1.20271
   5524.99  1.20692
   5532.62  1.21114
   5540.27  1.21537
   5547.92  1.21962
   5555.58  1.22389
   5563.26  1.22817
   5570.94  1.23246
   5578.63  1.23678
   5586.34  1.24111
   5594.06  1.24546
   5601.78  1.24982
   5609.52  1.25420
   5617.27  1.25859
   5625.03  1.26300
   5632.80  1.26743
   5640.58  1.27187
   5648.37  1.27632
   5656.17  1.28079
   5663.98  1.28528
   5671.81  1.28978
   5679.64  1.29430
   5687.49  1.29883
   5695.34  1.30338
   5703.21  1.30794
   5711.09  1.31252
   5718.98  1.31712
   5726.88  1.32174
   5734.79  1.32637
   5742.71  1.33102
   5750.64  1.33569
   5758.58  1.34037
   5766.54  1.34507
   5774.50  1.34979
   5782.48  1.35452
   5790.47  1.35927
   5798.46  1.36403
   5806.47  1.36882
   5814.49  1.37363
   5822.52  1.37845
   5830.57  1.38329
   5838.62  1.38814
   5846.69  1.39301
   5854.76  1.39790
   5862.85  1.40281
   5870.95  1.40773
   5879.06  1.41267
   5887.18  1.41763
   5895.31  1.42261
   5903.45  1.42760
   5911.61  1.43261
   5919.77  1.43764
   5927.95  1.44269
   5936.14  1.44775
   5944.34  1.45283
   5952.55  1.45794
   5960.77  1.46306
   5969.00  1.46820
   5977.25  1.47336
   5985.50  1.47854
   5993.77  1.48373
   6002.05  1.48895
   6010.34  1.49418
   6018.64  1.49943
   6026.96  1.50470
   6035.28  1.50999
   6043.62  1.51530
   6051.97  1.52062
   6060.32  1.52597
   6068.70  1.53133
   6077.08  1.53671
   6085.47  1.54211
   6093.88  1.54753
   6102.29  1.55297
   6110.72  1.55843
   6119.16  1.56392
   6127.62  1.56942
   6136.08  1.57495
   6144.56  1.58049
   6153.04  1.58606
   6161.54  1.59164
   6170.05  1.59724
   6178.58  1.60287
   6187.11  1.60851
   6195.66  1.61417
   6204.21  1.61985
   6212.78  1.62556
   6221.37  1.63128
   6229.96  1.63702
   6238.56  1.64278
   6247.18  1.64856
   6255.81  1.65437
   6264.45  1.66019
   6273.10  1.66604
   6281.77  1.67192
   6290.45  1.67781
   6299.14  1.68373
   6307.84  1.68966
   6316.55  1.69562
   6325.27  1.70160
   6334.01  1.70760
   6342.76  1.71362
   6351.52  1.71966
   6360.29  1.72573
   6369.08  1.73181
   6377.88  1.73791
   6386.69  1.74404
   6395.51  1.75019
   6404.34  1.75636
   6413.19  1.76255
   6422.05  1.76876
   6430.92  1.77500
   6439.80  1.78127
   6448.70  1.78755
   6457.60  1.79387
   6466.52  1.80020
   6475.45  1.80656
   6484.40  1.81294
   6493.36  1.81934
   6502.32  1.82576
   6511.31  1.83221
   6520.30  1.83868
   6529.31  1.84517
   6538.33  1.85168
   6547.36  1.85822
   6556.40  1.86478
   6565.46  1.87136
   6574.52  1.87797
   6583.61  1.88460
   6592.70  1.89125
   6601.81  1.89792
   6610.92  1.90463
   6620.06  1.91136
   6629.20  1.91811
   6638.36  1.92489
   6647.53  1.93169
   6656.71  1.93851
   6665.90  1.94536
   6675.11  1.95223
   6684.33  1.95913
   6693.56  1.96605
   6702.81  1.97301
   6712.07  1.97999
   6721.34  1.98700
   6730.62  1.99403
   6739.92  2.00109
   6749.23  2.00817
   6758.55  2.01528
   6767.89  2.02241
   6777.24  2.02956
   6786.60  2.03675
   6795.97  2.04395
   6805.36  2.05119
   6814.76  2.05845
   6824.17  2.06573
   6833.60  2.07304
   6843.04  2.08038
   6852.49  2.08774
   6861.95  2.09513
   6871.43  2.10255
   6880.92  2.11000
   6890.43  2.11748
   6899.95  2.12498
   6909.48  2.13251
   6919.02  2.14006
   6928.58  2.14764
   6938.15  2.15525
   6947.73  2.16289
   6957.33  2.17055
   6966.94  2.17824
   6976.56  2.18596
   6986.20  2.19370
   6995.85  2.20147
   7005.51  2.20927
   7015.19  2.21710
   7024.88  2.22495
   7034.58  2.23283
   7044.30  2.24075
   7054.03  2.24869
   7063.77  2.25666
   7073.53  2.26466
   7083.30  2.27269
   7093.08  2.28075
   7102.88  2.28884
   7112.69  2.29695
   7122.52  2.30509
   7132.35  2.31326
   7142.21  2.32147
   7152.07  2.32971
   7161.95  2.33798
   7171.84  2.34627
   7181.75  2.35460
   7191.67  2.36295
   7201.60  2.37134
   7211.55  2.37975
   7221.51  2.38820
   7231.49  2.39668
   7241.47  2.40519
   7251.48  2.41375
   7261.49  2.42232
   7271.52  2.43093
   7281.57  2.43957
   7291.62  2.44824
   7301.70  2.45695
   7311.78  2.46568
   7321.88  2.47444
   7332.00  2.48324
   7342.12  2.49206
   7352.26  2.50091
   7362.42  2.50980
   7372.59  2.51871
   7382.77  2.52766
   7392.97  2.53664
   7403.18  2.54565
   7413.41  2.55469
   7423.65  2.56378
   7433.90  2.57290
   7444.17  2.58207
   7454.45  2.59126
   7464.75  2.60048
   7475.06  2.60975
   7485.39  2.61904
   7495.72  2.62836
   7506.08  2.63772
   7516.45  2.64711
   7526.83  2.65652
   7537.23  2.66597
   7547.64  2.67544
   7558.06  2.68495
   7568.50  2.69450
   7578.96  2.70407
   7589.42  2.71369
   7599.91  2.72333
   7610.40  2.73301
   7620.92  2.74275
   7631.44  2.75252
   7641.98  2.76234
   7652.54  2.77219
   7663.11  2.78207
   7673.70  2.79199
   7684.29  2.80195
   7694.91  2.81194
   7705.54  2.82197
   7716.18  2.83203
   7726.84  2.84213
   7737.51  2.85226
   7748.20  2.86242
   7758.90  2.87263
   7769.62  2.88287
   7780.35  2.89315
   7791.10  2.90347
   7801.86  2.91382
   7812.64  2.92421
   7823.43  2.93463
   7834.23  2.94509
   7845.06  2.95559
   7855.89  2.96612
   7866.74  2.97670
   7877.61  2.98730
   7888.49  2.99795
   7899.39  3.00864
   7910.30  3.01936
   7921.22  3.03013
   7932.17  3.04096
   7943.12  3.05182
   7954.09  3.06272
   7965.08  3.07366
   7976.08  3.08463
   7987.10  3.09565
   7998.13  3.10671
   8009.18  3.11780
   8020.24  3.12894
   8031.32  3.14013
   8042.41  3.15136
   8053.52  3.16263
   8064.65  3.17394
   8075.79  3.18530
   8086.94  3.19669
   8098.11  3.20812
   8109.30  3.21959
   8120.50  3.23111
   8131.71  3.24266
   8142.95  3.25426
   8154.19  3.26590
   8165.46  3.27758
   8176.74  3.28930
   8188.03  3.30106
   8199.34  3.31287
   8210.67  3.32472
   8222.01  3.33661
   8233.36  3.34855
   8244.74  3.36053
   8256.13  3.37256
   8267.53  3.38463
   8278.95  3.39674
   8290.38  3.40890
   8301.83  3.42110
   8313.30  3.43335
   8324.79  3.44564
   8336.28  3.45797
   8347.80  3.47036
   8359.33  3.48280
   8370.88  3.49529
   8382.44  3.50782
   8394.02  3.52039
   8405.61  3.53301
   8417.22  3.54568
   8428.85  3.55839
   8440.49  3.57114
   8452.15  3.58395
   8463.82  3.59680
   8475.51  3.60970
   8487.22  3.62265
   8498.95  3.63564
   8510.68  3.64868
   8522.44  3.66176
   8534.21  3.67489
   8546.00  3.68807
   8557.80  3.70129
   8569.63  3.71458
   8581.46  3.72790
   8593.32  3.74128
   8605.19  3.75471
   8617.07  3.76818
   8628.97  3.78169
   8640.89  3.79527
   8652.83  3.80888
   8664.78  3.82255
   8676.75  3.83627
   8688.73  3.85003
   8700.74  3.86385
   8712.75  3.87771
   8724.79  3.89162
   8736.84  3.90559
   8748.91  3.91960
   8760.99  3.93367
   8773.09  3.94778
   8785.21  3.96195
   8797.35  3.97619
   8809.50  3.99047
   8821.67  4.00480
   8833.85  4.01920
   8846.05  4.03363
   8858.27  4.04812
   8870.51  4.06267
   8882.76  4.07727
   8895.03  4.09192
   8907.32  4.10665
   8919.62  4.12144
   8931.94  4.13629
   8944.28  4.15118
   8956.63  4.16613
   8969.00  4.18114
   8981.39  4.19620
   8993.80  4.21131
   9006.22  4.22648
   9018.66  4.24170
   9031.12  4.25698
   9043.59  4.27230
   9056.08  4.28768
   9068.59  4.30312
   9081.12  4.31862
   9093.66  4.33417
   9106.22  4.34978
   9118.80  4.36544
   9131.40  4.38116
   9144.01  4.39698
   9156.64  4.41286
   9169.29  4.42880
   9181.95  4.44479
   9194.64  4.46084
   9207.34  4.47695
   9220.05  4.49312
   9232.79  4.50935
   9245.54  4.52563
   9258.31  4.54195
   9271.10  4.55833
   9283.91  4.57477
   9296.73  4.59126
   9309.57  4.60782
   9322.43  4.62443
   9335.31  4.64110
   9348.20  4.65784
   9361.12  4.67463
   9374.05  4.69150
   9386.99  4.70845
   9399.96  4.72547
   9412.94  4.74256
   9425.95  4.75970
   9438.97  4.77691
   9452.00  4.79418
   9465.06  4.81151
   9478.13  4.82891
   9491.23  4.84636
   9504.34  4.86387
   9517.46  4.88146
   9530.61  4.89910
   9543.77  4.91681
   9556.96  4.93458
   9570.16  4.95241
   9583.38  4.97032
   9596.61  4.98828
   9609.87  5.00631
   9623.14  5.02441
   9636.44  5.04258
   9649.75  5.06081
   9663.08  5.07911
   9676.42  5.09747
   9689.79  5.11591
   9703.17  5.13441
   9716.58  5.15297
   9730.00  5.17160
   9743.44  5.19029
   9756.89  5.20865
   9770.37  5.22708
   9783.87  5.24557
   9797.38  5.26413
   9810.91  5.28275
   9824.47  5.30144
   9838.04  5.32020
   9851.63  5.33902
   9865.23  5.35791
   9878.86  5.37687
   9892.50  5.39589
   9906.17  5.41497
   9919.85  5.43409
   9933.55  5.45328
   9947.28  5.47254
   9961.02  5.49186
   9974.77  5.51126
   9988.55  5.53072
   10002.3  5.55025
   10016.2  5.56986
   10030.0  5.58952
   10038.1  5.60108
   10046.2  5.61266
   10054.4  5.62428
   10062.5  5.63590
   10070.7  5.64756
   10078.8  5.65923
   10087.0  5.67093
   10095.1  5.68266
   10103.3  5.69441
   10111.5  5.70619
   10119.6  5.71798
   10127.8  5.72981
   10136.0  5.74166
   10144.2  5.75353
   10152.4  5.76542
   10160.7  5.77735
   10168.9  5.78930
   10177.1  5.80127
   10185.3  5.81326
   10193.6  5.82528
   10201.8  5.83733
   10210.1  2.26985
   10218.4  2.27503
   10226.6  2.28022
   10234.9  2.28543
   10243.2  2.29064
   10251.5  2.29586
   10259.8  2.30109
   10268.1  2.30635
   10276.4  2.31160
   10284.7  2.31687
   10293.0  2.32216
   10301.4  2.32746
   10309.7  2.33276
   10318.0  2.33808
   10326.4  2.34341
   10334.7  2.34875
   10343.1  2.35411
   10351.5  2.35948
   10359.9  2.36486
   10368.2  2.37025
   10376.6  2.37566
   10385.0  2.38108
   10393.4  2.38651
   10401.8  2.39195
   10410.3  2.39741
   10418.7  2.40288
   10427.1  2.40836
   10435.6  2.41385
   10444.0  2.41935
   10452.4  2.42488
   10460.9  2.43040
   10469.4  2.43595
   10477.8  2.44150
   10486.3  2.44708
   10494.8  2.45266
   10503.3  2.45825
   10511.8  2.46386
   10520.3  2.46948
   10528.8  2.47511
   10537.3  2.48076
   10545.9  2.48641
   10554.4  2.49208
   10562.9  2.49777
   10571.5  2.50346
   10580.1  2.50917
   10588.6  2.51489
   10597.2  2.52063
   10605.8  2.52638
   10614.3  2.53214
   10622.9  2.53791
   10631.5  2.54369
   10640.1  2.54950
   10648.7  2.55531
   10657.4  2.56114
   10666.0  2.56697
   10674.6  2.57283
   10683.3  2.57870
   10691.9  2.58458
   10700.6  2.59047
   10709.2  2.59638
   10717.9  2.60230
   10726.6  2.60823
   10735.2  2.61418
   10743.9  2.62014
   10752.6  2.62612
   10761.3  2.63211
   10770.0  2.63811
   10778.7  2.64412
   10787.5  2.65016
   10796.2  2.65620
   10804.9  2.66226
   10813.7  2.66833
   10822.4  2.67442
   10831.2  2.68051
   10840.0  2.68663
   10848.7  2.69275
   10857.5  2.69889
   10866.3  2.70505
   10875.1  2.71122
   10883.9  2.71740
   10892.7  2.72360
   10901.5  2.72981
   10910.3  2.73604
   10919.2  2.74228
   10928.0  2.74853
   10936.8  2.75480
   10945.7  2.76108
   10954.5  2.76738
   10963.4  2.77369
   10972.3  2.78001
   10981.2  2.78636
   10990.0  2.79271
   10998.9  2.79908
   11007.8  2.80546
   11016.8  2.81187
   11025.7  2.81828
   11034.6  2.82470
   11043.5  2.83114
   11052.5  2.83761
   11061.4  2.84408
   11070.4  2.85056
   11079.3  2.85706
   11088.3  2.86357
   11097.3  2.87011
   11106.2  2.87665
   11115.2  2.88321
   11124.2  2.88978
   11133.2  2.89638
   11142.2  2.90298
   11151.2  2.90960
   11160.3  2.91623
   11169.3  2.92288
   11178.3  2.92955
   11187.4  2.93623
   11196.4  2.94292
   11205.5  2.94963
   11214.6  2.95636
   11223.6  2.96310
   11232.7  2.96985
   11241.8  2.97663
   11250.9  2.98342
   11260.0  2.99022
   11269.1  2.99704
   11278.3  3.00387
   11287.4  3.01072
   11296.5  3.01760
   11305.7  3.02448
   11314.8  3.03137
   11324.0  3.03829
   11333.1  3.04522
   11342.3  3.05217
   11351.5  3.05913
   11360.7  3.06610
   11369.9  3.07310
   11379.1  3.08011
   11388.3  3.08713
   11397.5  3.09417
   11406.7  3.10123
   11415.9  3.10831
   11425.2  3.11540
   11434.4  3.12250
   11443.7  3.12962
   11452.9  3.13676
   11462.2  3.14391
   11471.5  3.15107
   11480.8  3.15826
   11490.1  3.16546
   11499.4  3.17268
   11508.7  3.17991
   11518.0  3.18716
   11527.3  3.19442
   11536.6  3.20171
   11546.0  2.29182
   11555.3  2.29680
   11564.7  2.30180
   11574.0  2.30680
   11583.4  2.31181
   11592.8  2.31684
   11602.1  2.32187
   11611.5  2.32692
   11620.9  2.33198
   11630.3  2.33704
   11639.7  2.34212
   11649.2  2.34720
   11658.6  2.35230
   11668.0  2.35741
   11677.5  2.36253
   11686.9  2.36766
   11696.4  2.37280
   11705.8  2.37795
   11715.3  2.38312
   11724.8  2.38829
   11734.3  2.39348
   11743.8  2.39868
   11753.3  2.40389
   11762.8  2.40910
   11772.3  2.41434
   11781.8  2.41958
   11791.4  2.42483
   11800.9  2.43010
   11810.5  2.43538
   11820.0  2.44067
   11829.6  2.44597
   11839.2  2.45129
   11848.7  2.45661
   11858.3  2.46196
   11867.9  2.46731
   11877.5  2.47267
   11887.1  2.47804
   11896.8  2.48342
   11906.4  2.48882
   11916.0  2.49423
   11925.7  2.49965
   11935.3  2.50508
   11945.0  2.51053
   11954.6  2.51598
   11964.3  2.52145
   11974.0  2.52693
   11983.7  2.53242
   11993.4  2.53792
   12003.1  2.54344
   12012.8  2.54896
   12022.5  2.55450
   12032.3  2.56006
   12042.0  2.56562
   12051.7  2.57119
   12061.5  2.57678
   12071.3  2.58238
   12081.0  2.58799
   12090.8  2.59361
   12100.6  2.26591
   12110.4  2.27054
   12120.2  2.27517
   12130.0  2.27981
   12139.8  2.28446
   12149.6  2.28911
   12159.5  2.29379
   12169.3  2.29846
   12179.1  2.30315
   12189.0  2.30785
   12198.9  2.31256
   12208.7  2.31727
   12218.6  2.32200
   12228.5  2.32673
   12238.4  2.33148
   12248.3  2.33623
   12258.2  2.34100
   12268.1  2.34577
   12278.1  2.35055
   12288.0  2.35535
   12297.9  2.36015
   12307.9  2.36496
   12317.9  2.36979
   12327.8  2.37462
   12337.8  2.37946
   12347.8  2.38432
   12357.8  2.38918
   12367.8  2.39405
   12377.8  2.39893
   12387.8  2.40383
   12397.8  2.40873
   12407.9  2.41366
   12417.9  2.41860
   12428.0  2.42354
   12438.0  2.42849
   12448.1  2.43346
   12458.2  2.43844
   12468.2  2.44342
   12478.3  2.44842
   12488.4  2.45342
   12498.5  2.45844
   12508.6  2.46347
   12518.8  2.46850
   12528.9  2.47355
   12539.0  2.47861
   12549.2  2.48368
   12559.3  2.48876
   12569.5  2.49384
   12579.7  2.49894
   12589.9  2.50405
   12600.0  2.50918
   12610.2  2.51433
   12620.4  2.51949
   12630.7  2.52465
   12640.9  2.52984
   12651.1  2.53503
   12661.3  2.54023
   12671.6  2.54544
   12681.8  2.55066
   12692.1  2.55589
   12702.4  2.56113
   12712.7  2.56639
   12723.0  2.57166
   12733.2  2.57693
   12743.6  2.58222
   12753.9  2.58751
   12764.2  2.59282
   12774.5  2.59814
   12784.9  2.60347
   12795.2  2.60881
   12805.6  2.61417
   12815.9  2.61955
   12826.3  2.62494
   12836.7  2.63034
   12847.1  2.63575
   12857.5  2.64117
   12867.9  2.64661
   12878.3  2.65205
   12888.7  2.65751
   12899.1  2.66297
   12909.6  2.66845
   12920.0  2.67394
   12930.5  2.67944
   12940.9  2.68495
   12951.4  2.69048
   12961.9  2.69601
   12972.4  2.70156
   12982.9  2.70711
   12993.4  2.71268
   13003.9  2.71826
   13014.4  2.72387
   13024.9  2.72949
   13035.5  2.73512
   13046.0  2.74076
   13056.6  2.74642
   13067.2  2.75208
   13077.7  2.75776
   13088.3  2.76345
   13098.9  2.76915
   13109.5  2.77486
   13120.1  2.78059
   13130.7  2.78633
   13141.4  2.79208
   13152.0  2.79784
   13162.6  2.80361
   13173.3  2.80939
   13184.0  2.81519
   13194.6  2.82100
   13205.3  2.82682
   13216.0  2.83265
   13226.7  2.83851
   13237.4  2.84438
   13248.1  2.85026
   13258.8  2.85615
   13269.6  2.86206
   13280.3  2.86797
   13291.0  2.87390
   13301.8  2.87984
   13312.6  2.88580
   13323.3  2.89177
   13334.1  2.89774
   13344.9  2.90373
   13355.7  2.90973
   13366.5  2.91576
   13377.3  2.92178
   13388.2  2.92782
   13399.0  2.93387
   13409.8  2.93994
   13420.7  2.94602
   13431.5  2.95211
   13442.4  2.95823
   13453.3  2.96437
   13464.2  2.97052
   13475.1  2.97667
   13486.0  2.98284
   13496.9  2.98903
   13507.8  2.99523
   13518.8  3.00144
   13529.7  3.00766
   13540.6  3.01389
   13551.6  3.02015
   13562.6  3.02641
   13573.5  3.03268
   13584.5  3.03897
   13595.5  3.04527
   13606.5  3.05158
   13617.5  3.05791
   13628.6  3.06425
   13639.6  3.07060
   13650.6  3.07698
   13661.7  3.08337
   13672.7  3.08978
   13683.8  3.09620
   13694.9  3.10264
   13705.9  3.10909
   13717.0  3.11555
   13728.1  3.12202
   13739.2  3.12851
   13750.4  3.13502
   13761.5  3.14153
   13772.6  3.14806
   13783.8  3.15461
   13794.9  3.16116
   13806.1  3.16774
   13817.3  3.17432
   13828.4  3.18092
   13839.6  3.18753
   13850.8  3.19415
   13862.0  3.20079
   13873.3  3.20745
   13884.5  3.21413
   13895.7  3.22083
   13907.0  3.22754
   13918.2  3.23426
   13929.5  3.24100
   13940.8  3.24775
   13952.0  3.25452
   13963.3  3.26129
   13974.6  3.26809
   13985.9  3.27489
   13997.3  3.28172
   14008.6  3.28855
   14019.9  3.29540
   14031.3  3.30227
   14042.6  3.30915
   14054.0  3.31604
   14065.4  3.32295
   14076.7  3.32987
   14088.1  3.33681
   14099.5  3.34377
   14111.0  3.35075
   14122.4  3.35774
   14133.8  3.36475
   14145.2  3.37178
   14156.7  3.37882
   14168.1  3.38587
   14179.6  3.39294
   14191.1  3.40003
   14202.6  3.40713
   14214.1  3.41424
   14225.6  3.42137
   14237.1  3.42851
   14248.6  3.43567
   14260.1  3.44284
   14271.7  3.45003
   14283.2  3.45723
   14294.8  3.46445
   14306.3  3.47169
   14317.9  3.47893
   14329.5  3.48621
   14341.1  3.49351
   14352.7  3.50082
   14364.3  3.50814
   14376.0  3.51548
   14387.6  3.52283
   14399.2  3.53021
   14410.9  3.53760
   14422.5  3.54500
   14434.2  3.55241
   14445.9  3.55985
   14457.6  3.56730
   14469.3  3.57476
   14481.0  3.58224
   14492.7  3.58974
   14504.4  3.59725
   14516.2  3.60477
   14527.9  3.61232
   14539.7  3.61987
   14551.5  3.62745
   14563.2  3.63505
   14575.0  3.64267
   14586.8  3.65031
   14598.6  3.65797
   14610.4  3.66563
   14622.3  3.67332
   14634.1  3.68102
   14645.9  3.68874
   14657.8  3.69647
   14669.6  3.70422
   14681.5  3.71198
   14693.4  3.71977
   14705.3  3.72756
   14717.2  3.73538
   14729.1  3.74321
   14741.0  3.75105
   14752.9  3.75892
   14764.9  3.76680
   14776.8  3.77469
   14788.8  3.78261
   14800.8  3.79056
   14812.7  3.79853
   14824.7  3.80651
   14836.7  3.81450
   14848.7  3.82252
   14860.7  3.83055
   14872.8  3.83860
   14884.8  3.84667
   14896.9  3.85475
   14908.9  3.86285
   14921.0  3.87097
   14933.0  3.87910
   14945.1  3.88725
   14957.2  3.89542
   14969.3  3.90360
   14981.4  3.91181
   14993.6  3.92002
   15005.7  3.92826
   15017.8  3.93652
   15030.0  3.94479
   15038.6  3.95069
   15047.3  3.95659
   15055.9  3.96250
   15064.6  3.96842
   15073.2  3.97435
   15081.9  3.98029
   15090.6  3.98623
   15099.2  3.99219
   15107.9  3.99815
   15116.6  4.00412
   15125.3  4.01011
   15134.0  4.01610
   15142.6  4.02209
   15151.3  4.02811
   15160.0  4.03412
   15168.8  4.04015
   15177.5  4.04618
   15186.2  4.05223
   15194.9  4.05828
   15203.6  4.06434
   15212.4  4.07042
   15221.1  4.07650
   15229.9  4.08259
   15238.6  4.08868
   15247.4  4.09480
   15256.1  4.10091
   15264.9  4.10704
   15273.7  4.11318
   15282.4  4.11934
   15291.2  4.12551
   15300.0  4.13168
   15308.8  4.13787
   15317.6  4.14407
   15326.4  4.15027
   15335.2  4.15648
   15344.0  4.16270
   15352.8  4.16894
   15361.6  4.17518
   15370.5  4.18143
   15379.3  4.18770
   15388.1  4.19396
   15397.0  4.20024
   15405.8  4.20653
   15414.7  4.21283
   15423.5  4.21914
   15432.4  4.22545
   15441.3  4.23178
   15450.1  4.23812
   15459.0  4.24446
   15467.9  4.25081
   15476.8  4.25718
   15485.7  4.26355
   15494.6  4.26994
   15503.5  4.27633
   15512.4  4.28274
   15521.3  4.28915
   15530.2  4.29558
   15539.1  4.30202
   15548.1  4.30848
   15557.0  4.31493
   15565.9  4.32140
   15574.9  4.32788
   15583.8  4.33438
   15592.8  4.34087
   15601.7  4.34738
   15610.7  4.35390
   15619.7  4.36043
   15628.6  4.36697
   15637.6  4.37351
   15646.6  4.38007
   15655.6  4.38664
   15664.6  4.39322
   15673.6  4.39980
   15682.6  4.40640
   15691.6  4.41301
   15700.6  4.41963
   15709.6  4.42625
   15718.7  4.43289
   15727.7  4.43954
   15736.7  4.44619
   15745.8  4.45286
   15754.8  4.45954
   15763.9  4.46622
   15772.9  4.47293
   15782.0  4.47965
   15791.1  4.48638
   15800.1  4.49312
   15809.2  4.49987
   15818.3  4.50664
   15827.4  4.51340
   15836.5  4.52018
   15845.6  4.52697
   15854.7  4.53378
   15863.8  4.54059
   15872.9  4.54741
   15882.0  4.55424
   15891.1  4.56109
   15900.3  4.56794
   15909.4  4.57480
   15918.5  4.58168
   15927.7  4.58856
   15936.8  4.59545
   15946.0  4.60235
   15955.2  4.60927
   15964.3  4.61620
   15973.5  4.62313
   15982.7  4.63007
   15991.9  4.63703
   16001.0  4.64400
   16010.2  4.65097
   16019.4  4.65797
   16028.6  4.66497
   16037.8  4.67199
   16047.1  4.67902
   16056.3  4.68607
   16065.5  4.69312
   16074.7  4.70018
   16084.0  4.70725
   16093.2  4.71434
   16102.5  4.72143
   16111.7  4.72854
   16121.0  4.73565
   16130.2  4.74278
   16139.5  4.74992
   16148.8  4.75706
   16158.0  4.76422
   16167.3  4.77140
   16176.6  4.77858
   16185.9  4.78577
   16195.2  4.79297
   16204.5  4.80018
   16213.8  4.80741
   16223.1  4.81464
   16232.5  4.82189
   16241.8  4.82914
   16251.1  4.83641
   16260.5  4.84369
   16269.8  4.85098
   16279.1  4.85828
   16288.5  4.86560
   16297.9  4.87293
   16307.2  4.88028
   16316.6  4.88763
   16326.0  4.89499
   16335.3  4.90238
   16344.7  4.90976
   16354.1  4.91716
   16363.5  4.92457
   16372.9  4.93200
   16382.3  4.93943
   16391.7  4.94687
   16401.2  4.95432
   16410.6  4.96179
   16420.0  4.96927
   16429.4  4.97675
   16438.9  4.98426
   16448.3  4.99177
   16457.8  4.99929
   16467.2  5.00682
   16476.7  5.01437
   16486.2  5.02193
   16495.6  5.02949
   16505.1  5.03707
   16514.6  5.04467
   16524.1  5.05227
   16533.6  5.05988
   16543.1  5.06750
   16552.6  5.07516
   16562.1  5.08282
   16571.6  5.09049
   16581.1  5.09818
   16590.6  5.10588
   16600.2  5.11359
   16609.7  5.12131
   16619.3  5.12904
   16628.8  5.13679
   16638.4  5.14454
   16647.9  5.15231
   16657.5  5.16009
   16667.1  5.16788
   16676.6  5.17568
   16686.2  5.18350
   16695.8  5.19133
   16705.4  5.19917
   16715.0  5.20701
   16724.6  5.21488
   16734.2  5.22275
   16743.8  5.23064
   16753.4  5.23853
   16763.1  5.24644
   16772.7  5.25437
   16782.3  5.26230
   16792.0  5.27024
   16801.6  5.27821
   16811.3  5.28617
   16820.9  5.29416
   16830.6  5.30216
   16840.3  5.31018
   16849.9  5.31821
   16859.6  5.32625
   16869.3  5.33430
   16879.0  5.34237
   16888.7  5.35044
   16898.4  5.35852
   16908.1  5.36663
   16917.8  5.37474
   16927.5  5.38286
   16937.3  5.39100
   16947.0  5.39915
   16956.7  5.40731
   16966.5  5.41548
   16976.2  5.42367
   16986.0  5.43187
   16995.7  5.44008
   17005.5  5.44830
   17015.3  5.45653
   17025.0  5.46479
   17034.8  5.47305
   17044.6  5.48132
   17054.4  5.48961
   17064.2  5.49791
   17074.0  5.50621
   17083.8  5.51453
   17093.6  5.52289
   17103.5  5.53125
   17113.3  5.53962
   17123.1  5.54801
   17133.0  5.55642
   17142.8  5.56483
   17152.6  5.57325
   17162.5  5.58169
   17172.4  5.59015
   17182.2  5.59861
   17192.1  5.60708
   17202.0  5.61558
   17211.9  5.62408
   17221.7  5.63259
   17231.6  5.64112
   17241.5  5.64967
   17251.4  5.65822
   17261.4  5.66678
   17271.3  5.67536
   17281.2  5.68396
   17291.1  5.69256
   17301.1  5.70118
   17311.0  5.70981
   17320.9  5.71846
   17330.9  5.72712
   17340.9  5.73579
   17350.8  5.74448
   17360.8  5.75318
   17370.8  5.76190
   17380.7  5.77063
   17390.7  5.77939
   17400.7  5.78815
   17410.7  5.79693
   17420.7  5.80572
   17430.7  5.81453
   17440.7  5.82334
   17450.8  5.83217
   17460.8  5.84101
   17470.8  5.84988
   17480.9  5.85875
   17490.9  5.86763
   17500.9  5.87653
   17511.0  5.88544
   17521.1  5.89437
   17531.1  5.90330
   17541.2  5.91226
   17551.3  5.92123
   17561.4  5.93020
   17571.5  5.93919
   17581.6  5.94821
   17591.7  5.95722
   17601.8  5.96626
   17611.9  5.97530
   17622.0  5.98437
   17632.1  5.99344
   17642.2  6.00253
   17652.4  6.01165
   17662.5  6.02077
   17672.7  6.02991
   17682.8  6.03906
   17693.0  6.04823
   17703.1  6.05741
   17713.3  6.06660
   17723.5  6.07581
   17733.7  6.08504
   17743.9  6.09427
   17754.1  6.10352
   17764.3  6.11279
   17774.5  6.12207
   17784.7  6.13136
   17794.9  6.14067
   17805.1  6.14999
   17815.4  6.15933
   17825.6  6.16867
   17835.8  6.17804
   17846.1  6.18742
   17856.3  6.19681
   17866.6  6.20622
   17876.9  6.21563
   17887.1  6.22508
   17897.4  6.23452
   17907.7  6.24398
   17918.0  6.25346
   17928.3  6.26296
   17938.6  6.27248
   17948.9  6.28201
   17959.2  6.29156
   17969.5  6.30114
   17979.8  6.31071
   17990.2  6.32031
   18000.5  6.32992
   18010.8  6.33954
   18021.2  6.34918
   18031.5  6.35883
   18041.9  6.36851
   18052.3  6.37818
   18062.6  6.38788
   18073.0  6.39759
   18083.4  6.40732
   18093.8  6.41706
   18104.2  6.42682
   18114.6  6.43659
   18125.0  6.44638
   18135.4  6.45617
   18145.8  6.46599
   18156.2  6.47582
   18166.7  6.48567
   18177.1  6.49553
   18187.6  6.50540
   18198.0  6.51530
   18208.5  6.52520
   18218.9  6.53512
   18229.4  6.54507
   18239.9  6.55504
   18250.3  6.56501
   18260.8  6.57500
   18271.3  6.58502
   18281.8  6.59504
   18292.3  6.60507
   18302.8  6.61512
   18313.3  6.62520
   18323.9  6.63528
   18334.4  6.64538
   18344.9  6.65549
   18355.5  6.66563
   18366.0  6.67577
   18376.6  6.68593
   18387.1  6.69611
   18397.7  6.70631
   18408.3  6.71651
   18418.8  6.72673
   18429.4  6.73697
   18440.0  6.74723
   18450.6  6.75750
   18461.2  6.76778
   18471.8  6.77809
   18482.4  6.78840
   18493.0  6.79874
   18503.7  6.80908
   18514.3  6.81946
   18524.9  6.82985
   18535.6  6.84025
   18546.2  6.85067
   18556.9  6.86112
   18567.5  6.87158
   18578.2  6.88204
   18588.9  6.89253
   18599.6  6.90304
   18610.2  6.91356
   18620.9  6.92409
   18631.6  6.93465
   18642.3  6.94522
   18653.1  6.95580
   18663.8  6.96640
   18674.5  6.97702
   18685.2  6.98765
   18696.0  6.99830
   18706.7  7.00896
   18717.4  7.01965
   18728.2  7.03034
   18739.0  7.04105
   18749.7  7.05178
   18760.5  7.06254
   18771.3  7.07330
   18782.1  7.08407
   18792.9  7.09488
   18803.6  7.10569
   18814.5  7.11651
   18825.3  7.12737
   18836.1  7.13825
   18846.9  7.14914
   18857.7  7.16004
   18868.6  7.17096
   18879.4  7.18191
   18890.2  7.19286
   18901.1  7.20383
   18912.0  7.21481
   18922.8  7.22583
   18933.7  7.23685
   18944.6  7.24789
   18955.5  7.25895
   18966.4  7.27002
   18977.2  7.28111
   18988.2  7.29221
   18999.1  7.30334
   19010.0  7.31448
   19020.9  7.32564
   19031.8  7.33681
   19042.8  7.34801
   19053.7  7.35921
   19064.6  7.37044
   19075.6  7.38168
   19086.6  7.39294
   19097.5  7.40422
   19108.5  7.41551
   19119.5  7.42684
   19130.5  7.43818
   19141.5  7.44954
   19152.4  7.46092
   19163.5  7.47232
   19174.5  7.48374
   19185.5  7.49516
   19196.5  7.50661
   19207.5  7.51809
   19218.6  7.52957
   19229.6  7.54107
   19240.7  7.55258
   19251.7  7.56413
   19262.8  7.57568
   19273.8  7.58725
   19284.9  7.59885
   19296.0  7.61046
   19307.1  7.62208
   19318.2  7.63372
   19329.3  7.64539
   19340.4  7.65706
   19351.5  7.66876
   19362.6  7.68047
   19373.7  7.69221
   19384.9  7.70396
   19396.0  7.71572
   19407.1  7.72750
   19418.3  7.73932
   19429.4  7.75114
   19440.6  7.76299
   19451.8  7.77485
   19463.0  7.78675
   19474.1  7.79865
   19485.3  7.81057
   19496.5  7.82252
   19507.7  7.83448
   19518.9  7.84645
   19530.1  7.85845
   19541.4  7.87047
   19552.6  7.88250
   19563.8  7.89455
   19575.1  7.90661
   19586.3  7.91871
   19597.6  7.93081
   19608.8  7.94294
   19620.1  7.95508
   19631.4  7.96725
   19642.6  7.97943
   19653.9  7.99162
   19665.2  8.00385
   19676.5  8.01608
   19687.8  8.02833
   19699.1  8.04060
   19710.4  8.05291
   19721.8  8.06522
   19733.1  8.07754
   19744.4  8.08990
   19755.8  8.10229
   19767.1  8.11469
   19778.5  8.12711
   19789.9  8.13954
   19801.2  8.15201
   19812.6  8.16449
   19824.0  8.17698
   19835.4  8.18951
   19846.8  8.20204
   19858.2  8.21459
   19869.6  8.22716
   19881.0  8.23976
   19892.4  8.25237
   19903.8  8.26500
   19915.3  8.27765
   19926.7  8.29033
   19938.2  8.30301
   19949.6  8.31572
   19961.1  8.32844
   19972.6  8.34120
   19984.0  8.35397
   19995.5  8.36675
   20007.0  8.37957
   20018.5  8.39239
   20030.0  8.40523
   20038.9  8.41521
   20047.9  8.42521
   20056.8  8.43521
   20065.7  8.44523
   20074.7  8.45528
   20083.6  8.46533
   20092.6  8.47539
   20101.5  8.48547
   20110.5  8.49555
   20119.5  8.50565
   20128.4  8.51577
   20137.4  8.52589
   20146.4  8.53602
   20155.4  8.54618
   20164.4  8.55633
   20173.3  8.56649
   20182.3  8.57669
   20191.3  8.58688
   20200.3  8.59710
   20209.3  8.60731
   20218.3  8.61754
   20227.4  8.62779
   20236.4  8.63804
   20245.4  8.64831
   20254.4  8.65858
   20263.5  8.66888
   20272.5  8.67918
   20281.5  8.68951
   20290.6  8.69983
   20299.6  8.71017
   20308.7  8.72053
   20317.7  8.73090
   20326.8  8.74127
   20335.8  8.75167
   20344.9  8.76207
   20354.0  8.77248
   20363.0  8.78291
   20372.1  8.79335
   20381.2  8.80380
   20390.3  8.81428
   20399.4  8.82476
   20408.5  8.83525
   20417.6  8.84578
   20426.7  8.85630
   20435.8  8.86683
   20444.9  8.87738
   20454.0  8.88794
   20463.1  8.89851
   20472.2  8.90911
   20481.4  8.91970
   20490.5  8.93031
   20499.6  8.94094
   20508.8  8.95158
   20517.9  8.96222
   20527.1  8.97289
   20536.2  8.98356
   20545.4  8.99424
   20554.5  9.00495
   20563.7  9.01566
   20572.9  9.02638
   20582.0  9.03713
   20591.2  9.04788
   20600.4  9.05863
   20609.6  9.06942
   20618.8  9.08021
   20627.9  9.09101
   20637.1  9.10183
   20646.3  9.11265
   20655.5  9.12349
   20664.8  9.13435
   20674.0  9.14521
   20683.2  9.15609
   20692.4  9.16699
   20701.6  9.17789
   20710.8  9.18880
   20720.1  9.19976
   20729.3  9.21071
   20738.6  9.22168
   20747.8  9.23267
   20757.1  9.24366
   20766.3  9.25467
   20775.6  9.26570
   20784.8  9.27673
   20794.1  9.28778
   20803.4  9.29885
   20812.6  9.30992
   20821.9  9.32100
   20831.2  9.33211
   20840.5  9.34322
   20849.8  9.35435
   20859.1  9.36550
   20868.4  9.37665
   20877.7  9.38783
   20887.0  9.39900
   20896.3  9.41019
   20905.6  9.42141
   20914.9  9.43263
   20924.2  9.44386
   20933.6  9.45511
   20942.9  9.46637
   20952.2  9.47764
   20961.6  9.48894
   20970.9  9.50023
   20980.3  9.51154
   20989.6  9.52288
   20999.0  9.53422
   21008.3  9.54557
   21017.7  9.55695
   21027.1  9.56833
   21036.5  9.57972
   21045.8  9.59114
   21055.2  9.60256
   21064.6  9.61401
   21074.0  9.62548
   21083.4  9.63694
   21092.8  9.64843
   21102.2  9.65994
   21111.6  9.67145
   21121.0  9.68297
   21130.4  9.69452
   21139.8  9.70608
   21149.3  9.71764
   21158.7  9.72923
   21168.1  9.74082
   21177.6  9.75243
   21187.0  9.76407
   21196.4  9.77570
   21205.9  9.78735
   21215.3  9.79902
   21224.8  9.81070
   21234.3  9.82239
   21243.7  9.83411
   21253.2  9.84582
   21262.7  9.85756
   21272.2  9.86932
   21281.6  9.88107
   21291.1  9.89285
   21300.6  9.90465
   21310.1  9.91645
   21319.6  9.92826
   21329.1  9.94011
   21338.6  9.95195
   21348.1  9.96381
   21357.7  9.97570
   21367.2  9.98758
   21376.7  9.99948
   21386.2  10.0114
   21395.8  10.0233
   21405.3  10.0353
   21414.8  10.0473
   21424.4  10.0593
   21433.9  10.0713
   21443.5  10.0833
   21453.1  10.0953
   21462.6  10.1073
   21472.2  10.1194
   21481.8  10.1315
   21491.3  10.1436
   21500.9  10.1557
   21510.5  10.1678
   21520.1  10.1799
   21529.7  10.1921
   21539.3  10.2042
   21548.9  10.2164
   21558.5  10.2286
   21568.1  10.2408
   21577.7  10.2530
   21587.3  10.2652
   21597.0  10.2775
   21606.6  10.2897
   21616.2  10.3020
   21625.9  10.3143
   21635.5  10.3266
   21645.1  10.3389
   21654.8  10.3512
   21664.4  10.3636
   21674.1  10.3759
   21683.8  10.3883
   21693.4  10.4007
   21703.1  10.4131
   21712.8  10.4255
   21722.5  10.4380
   21732.1  10.4504
   21741.8  10.4629
   21751.5  10.4754
   21761.2  10.4879
   21770.9  10.5004
   21780.6  10.5130
   21790.3  10.5255
   21800.0  10.5381
   21809.8  10.5507
   21819.5  10.5633
   21829.2  10.5759
   21838.9  10.5885
   21848.7  10.6011
   21858.4  10.6138
   21868.2  10.6265
   21877.9  10.6392
   21887.7  10.6518
   21897.4  10.6646
   21907.2  10.6773
   21916.9  10.6900
   21926.7  10.7028
   21936.5  10.7156
   21946.3  10.7284
   21956.1  10.7412
   21965.8  10.7540
   21975.6  10.7668
   21985.4  10.7797
   21995.2  10.7926
   22005.0  10.8055
   22014.8  10.8184
   22024.7  10.8313
   22034.5  10.8442
   22044.3  10.8572
   22054.1  10.8701
   22064.0  10.8831
   22073.8  10.8961
   22083.6  10.9091
   22093.5  10.9221
   22103.3  10.9352
   22113.2  10.9482
   22123.0  10.9613
   22132.9  10.9744
   22142.8  10.9875
   22152.6  11.0006
   22162.5  11.0138
   22172.4  11.0270
   22182.3  11.0401
   22192.2  11.0533
   22202.1  11.0665
   22212.0  11.0797
   22221.9  11.0930
   22231.8  11.1062
   22241.7  11.1195
   22251.6  11.1328
   22261.5  11.1461
   22271.4  11.1594
   22281.4  11.1727
   22291.3  11.1861
   22301.2  11.1994
   22311.2  11.2128
   22321.1  11.2262
   22331.1  11.2396
   22341.0  11.2531
   22351.0  11.2665
   22360.9  11.2800
   22370.9  11.2935
   22380.9  11.3069
   22390.9  11.3205
   22400.8  11.3340
   22410.8  11.3475
   22420.8  11.3611
   22430.8  11.3747
   22440.8  11.3882
   22450.8  11.4019
   22460.8  11.4155
   22470.8  11.4291
   22480.9  11.4428
   22490.9  11.4565
   22500.9  11.4702
   22510.9  11.4839
   22521.0  11.4976
   22531.0  11.5114
   22541.1  11.5251
   22551.1  11.5389
   22561.2  11.5527
   22571.2  11.5665
   22581.3  11.5804
   22591.3  11.5942
   22601.4  11.6081
   22611.5  11.6219
   22621.6  11.6358
   22631.7  11.6498
   22641.7  11.6637
   22651.8  11.6776
   22661.9  11.6916
   22672.0  11.7056
   22682.1  11.7196
   22692.3  11.7336
   22702.4  11.7476
   22712.5  11.7616
   22722.6  11.7757
   22732.7  11.7898
   22742.9  11.8039
   22753.0  11.8180
   22763.2  11.8321
   22773.3  11.8463
   22783.5  11.8604
   22793.6  11.8746
   22803.8  11.8888
   22813.9  11.9030
   22824.1  11.9173
   22834.3  11.9315
   22844.5  11.9458
   22854.7  11.9601
   22864.8  11.9744
   22875.0  11.9888
   22885.2  12.0031
   22895.4  12.0175
   22905.6  12.0318
   22915.9  12.0462
   22926.1  12.0606
   22936.3  12.0751
   22946.5  12.0895
   22956.7  12.1040
   22967.0  12.1185
   22977.2  12.1330
   22987.5  12.1475
   22997.7  12.1620
   23008.0  12.1766
   23018.2  12.1912
   23028.5  12.2058
   23038.7  12.2204
   23049.0  12.2350
   23059.3  12.2496
   23069.6  12.2643
   23079.8  12.2789
   23090.1  12.2936
   23100.4  12.3083
   23110.7  12.3231
   23121.0  12.3378
   23131.3  12.3526
   23141.7  12.3674
   23152.0  12.3822
   23162.3  12.3970
   23172.6  12.4118
   23182.9  12.4267
   23193.3  12.4415
   23203.6  12.4565
   23214.0  12.4714
   23224.3  12.4863
   23234.7  12.5013
   23245.0  12.5162
   23255.4  12.5312
   23265.8  12.5462
   23276.1  12.5612
   23286.5  12.5763
   23296.9  12.5913
   23307.3  12.6064
   23317.7  12.6215
   23328.0  12.6366
   23338.4  12.6517
   23348.9  12.6669
   23359.3  12.6820
   23369.7  12.6972
   23380.1  12.7124
   23390.5  12.7276
   23400.9  12.7429
   23411.4  12.7581
   23421.8  12.7734
   23432.2  12.7887
   23442.7  12.8040
   23453.1  12.8193
   23463.6  12.8347
   23474.1  12.8500
   23484.5  12.8654
   23495.0  12.8808
   23505.5  12.8962
   23515.9  12.9117
   23526.4  12.9271
   23536.9  12.9426
   23547.4  12.9581
   23557.9  12.9736
   23568.4  12.9892
   23578.9  13.0048
   23589.4  13.0203
   23599.9  13.0359
   23610.5  13.0515
   23621.0  13.0672
   23631.5  13.0828
   23642.1  13.0985
   23652.6  13.1142
   23663.1  13.1299
   23673.7  13.1456
   23684.2  13.1614
   23694.8  13.1771
   23705.4  13.1929
   23715.9  13.2087
   23726.5  13.2246
   23737.1  13.2404
   23747.7  13.2563
   23758.2  13.2721
   23768.8  13.2881
   23779.4  13.3040
   23790.0  13.3199
   23800.6  13.3359
   23811.2  13.3518
   23821.9  13.3678
   23832.5  13.3838
   23843.1  13.3999
   23853.7  13.4159
   23864.4  13.4320
   23875.0  13.4481
   23885.7  13.4642
   23896.3  13.4803
   23907.0  13.4965
   23917.6  13.5126
   23928.3  13.5288
   23938.9  13.5450
   23949.6  13.5613
   23960.3  13.5776
   23971.0  13.5938
   23981.7  13.6101
   23992.3  13.6264
   24003.0  13.6428
   24013.7  13.6591
   24024.4  13.6755
   24035.2  13.6919
   24045.9  13.7083
   24056.6  13.7248
   24067.3  13.7412
   24078.0  13.7577
   24088.8  13.7742
   24099.5  13.7907
   24110.3  13.8072
   24121.0  13.8238
   24131.8  13.8403
   24142.5  13.8570
   24153.3  13.8736
   24164.0  13.8902
   24174.8  13.9068
   24185.6  13.9235
   24196.4  13.9402
   24207.2  13.9569
   24218.0  13.9737
   24228.7  13.9904
   24239.5  14.0072
   24250.4  14.0240
   24261.2  14.0408
   24272.0  14.0576
   24282.8  14.0745
   24293.6  14.0913
   24304.5  14.1082
   24315.3  14.1251
   24326.1  14.1421
   24337.0  14.1591
   24347.8  14.1760
   24358.7  14.1930
   24369.5  14.2101
   24380.4  14.2271
   24391.3  14.2442
   24402.1  14.2613
   24413.0  14.2784
   24423.9  14.2955
   24434.8  14.3126
   24445.7  14.3298
   24456.6  14.3470
   24467.5  14.3642
   24478.4  14.3814
   24489.3  14.3987
   24500.2  14.4159
   24511.1  14.4332
   24522.1  14.4505
   24533.0  14.4679
   24543.9  14.4852
   24554.9  14.5026
   24565.8  14.5200
   24576.8  14.5374
   24587.7  14.5548
   24598.7  14.5723
   24609.7  14.5898
   24620.6  14.6073
   24631.6  14.6248
   24642.6  14.6423
   24653.6  14.6599
   24664.6  14.6775
   24675.6  14.6951
   24686.6  14.7127
   24697.6  14.7303
   24708.6  14.7480
   24719.6  14.7657
   24730.6  14.7834
   24741.6  14.8012
   24752.7  14.8189
   24763.7  14.8367
   24774.7  14.8545
   24785.8  14.8723
   24796.8  14.8902
   24807.9  14.9081
   24818.9  14.9260
   24830.0  14.9439
   24841.1  14.9618
   24852.1  14.9798
   24863.2  14.9978
   24874.3  15.0158
   24885.4  15.0338
   24896.5  15.0518
   24907.6  15.0699
   24918.7  15.0880
   24929.8  15.1061
   24940.9  15.1242
   24952.0  15.1424
   24963.2  15.1605
   24974.3  15.1787
   24985.4  15.1970
   24996.6  15.2152
   25007.7  15.2334
   25018.8  15.2517
   25030.0  15.2700
   25039.1  15.2849
   25048.1  15.2998
   25057.2  15.3147
   25066.3  15.3297
   25075.4  15.3446
   25084.5  15.3596
   25093.5  15.3746
   25102.6  15.3896
   25111.7  15.4046
   25120.8  15.4196
   25129.9  15.4347
   25139.0  15.4497
   25148.1  15.4648
   25157.3  15.4799
   25166.4  15.4950
   25175.5  15.5101
   25184.6  15.5253
   25193.7  15.5404
   25202.9  15.5556
   25212.0  15.5708
   25221.1  15.5860
   25230.3  15.6012
   25239.4  15.6164
   25248.6  15.6316
   25257.7  15.6469
   25266.9  15.6622
   25276.0  15.6774
   25285.2  15.6927
   25294.3  15.7080
   25303.5  15.7234
   25312.7  15.7387
   25321.8  15.7541
   25331.0  15.7695
   25340.2  15.7848
   25349.4  15.8002
   25358.5  15.8156
   25367.7  15.8311
   25376.9  15.8465
   25386.1  15.8620
   25395.3  15.8775
   25404.5  15.8930
   25413.7  15.9085
   25422.9  15.9240
   25432.1  15.9395
   25441.4  15.9551
   25450.6  15.9707
   25459.8  15.9862
   25469.0  16.0018
   25478.2  16.0174
   25487.5  16.0331
   25496.7  16.0487
   25506.0  16.0644
   25515.2  16.0800
   25524.4  16.0957
   25533.7  16.1115
   25542.9  16.1272
   25552.2  16.1429
   25561.4  16.1587
   25570.7  16.1745
   25580.0  16.1903
   25589.2  16.2061
   25598.5  16.2219
   25607.8  16.2377
   25617.1  16.2536
   25626.3  16.2695
   25635.6  16.2853
   25644.9  16.3012
   25654.2  16.3171
   25663.5  16.3331
   25672.8  16.3490
   25682.1  16.3650
   25691.4  16.3809
   25700.7  16.3969
   25710.0  16.4130
   25719.3  16.4290
   25728.7  16.4450
   25738.0  16.4611
   25747.3  16.4771
   25756.6  16.4932
   25766.0  16.5093
   25775.3  16.5254
   25784.6  16.5416
   25794.0  16.5577
   25803.3  16.5739
   25812.7  16.5901
   25822.0  16.6063
   25831.4  16.6225
   25840.7  16.6387
   25850.1  16.6550
   25859.5  16.6712
   25868.8  16.6875
   25878.2  16.7038
   25887.6  16.7201
   25897.0  16.7364
   25906.4  16.7527
   25915.7  16.7691
   25925.1  16.7854
   25934.5  16.8018
   25943.9  16.8183
   25953.3  16.8347
   25962.7  16.8511
   25972.1  16.8676
   25981.5  16.8841
   25991.0  16.9006
   26000.4  16.9171
   26009.8  16.9336
   26019.2  16.9501
   26028.6  16.9667
   26038.1  16.9833
   26047.5  16.9999
   26056.9  17.0165
   26066.4  17.0331
   26075.8  17.0497
   26085.3  17.0664
   26094.7  17.0831
   26104.2  17.0997
   26113.6  17.1164
   26123.1  17.1332
   26132.6  17.1499
   26142.0  17.1667
   26151.5  17.1834
   26161.0  17.2002
   26170.5  17.2170
   26179.9  17.2338
   26189.4  17.2506
   26198.9  17.2675
   26208.4  17.2844
   26217.9  17.3013
   26227.4  17.3181
   26236.9  17.3351
   26246.4  17.3520
   26255.9  17.3689
   26265.4  17.3859
   26274.9  17.4029
   26284.5  17.4199
   26294.0  17.4369
   26303.5  17.4539
   26313.0  17.4710
   26322.6  17.4880
   26332.1  17.5051
   26341.7  17.5222
   26351.2  17.5393
   26360.7  17.5565
   26370.3  17.5736
   26379.9  17.5908
   26389.4  17.6080
   26399.0  17.6252
   26408.5  17.6424
   26418.1  17.6596
   26427.7  17.6769
   26437.2  17.6942
   26446.8  17.7115
   26456.4  17.7288
   26466.0  17.7461
   26475.6  17.7634
   26485.2  17.7808
   26494.8  17.7982
   26504.4  17.8156
   26514.0  17.8330
   26523.6  17.8504
   26533.2  17.8678
   26542.8  17.8853
   26552.4  17.9028
   26562.0  17.9202
   26571.7  17.9378
   26581.3  17.9553
   26590.9  17.9728
   26600.6  17.9904
   26610.2  18.0080
   26619.8  18.0256
   26629.5  18.0432
   26639.1  18.0608
   26648.8  18.0784
   26658.4  18.0961
   26668.1  18.1138
   26677.8  18.1315
   26687.4  18.1492
   26697.1  18.1669
   26706.8  18.1846
   26716.4  18.2024
   26726.1  18.2202
   26735.8  18.2380
   26745.5  18.2558
   26755.2  18.2737
   26764.9  18.2915
   26774.6  18.3094
   26784.3  18.3273
   26794.0  18.3452
   26803.7  18.3631
   26813.4  18.3811
   26823.1  18.3991
   26832.8  18.4170
   26842.5  18.4350
   26852.3  18.4531
   26862.0  18.4711
   26871.7  18.4892
   26881.5  18.5073
   26891.2  18.5253
   26901.0  18.5434
   26910.7  18.5616
   26920.5  18.5797
   26930.2  18.5979
   26940.0  18.6161
   26949.7  18.6342
   26959.5  18.6525
   26969.3  18.6707
   26979.0  18.6890
   26988.8  18.7072
   26998.6  18.7255
   27008.4  18.7438
   27018.1  18.7621
   27027.9  18.7805
   27037.7  18.7988
   27047.5  18.8172
   27057.3  18.8356
   27067.1  18.8540
   27076.9  18.8724
   27086.7  18.8909
   27096.6  18.9094
   27106.4  18.9278
   27116.2  18.9464
   27126.0  18.9649
   27135.8  18.9834
   27145.7  19.0019
   27155.5  19.0205
   27165.4  19.0391
   27175.2  19.0577
   27185.0  19.0764
   27194.9  19.0950
   27204.7  19.1137
   27214.6  19.1324
   27224.5  19.1511
   27234.3  19.1698
   27244.2  19.1886
   27254.1  19.2073
   27263.9  19.2261
   27273.8  19.2449
   27283.7  19.2637
   27293.6  19.2826
   27303.5  19.3014
   27313.4  19.3203
   27323.3  19.3392
   27333.2  19.3581
   27343.1  19.3770
   27353.0  19.3960
   27362.9  19.4150
   27372.8  19.4340
   27382.7  19.4529
   27392.6  19.4720
   27402.6  19.4910
   27412.5  19.5101
   27422.4  19.5292
   27432.3  19.5483
   27442.3  19.5674
   27452.2  19.5865
   27462.2  19.6057
   27472.1  19.6248
   27482.1  19.6440
   27492.0  19.6633
   27502.0  19.6825
   27512.0  19.7017
   27521.9  19.7210
   27531.9  19.7403
   27541.9  19.7596
   27551.9  19.7789
   27561.8  19.7983
   27571.8  19.8176
   27581.8  19.8370
   27591.8  19.8564
   27601.8  19.8758
   27611.8  19.8952
   27621.8  19.9147
   27631.8  19.9341
   27641.8  19.9536
   27651.8  19.9732
   27661.9  19.9927
   27671.9  20.0123
   27681.9  20.0319
   27691.9  20.0514
   27702.0  20.0710
   27712.0  20.0907
   27722.0  20.1103
   27732.1  20.1300
   27742.1  20.1497
   27752.2  20.1694
   27762.2  20.1891
   27772.3  20.2089
   27782.4  20.2287
   27792.4  20.2485
   27802.5  20.2683
   27812.6  20.2881
   27822.7  20.3079
   27832.7  20.3278
   27842.8  20.3477
   27852.9  20.3676
   27863.0  20.3875
   27873.1  20.4075
   27883.2  20.4274
   27893.3  20.4474
   27903.4  20.4674
   27913.5  20.4874
   27923.6  20.5075
   27933.7  20.5275
   27943.9  20.5476
   27954.0  20.5677
   27964.1  20.5878
   27974.2  20.6079
   27984.4  20.6281
   27994.5  20.6483
   28004.7  20.6685
   28014.8  20.6887
   28025.0  20.7089
   28035.1  20.7292
   28045.3  20.7494
   28055.4  20.7697
   28065.6  20.7901
   28075.8  20.8104
   28085.9  20.8307
   28096.1  20.8511
   28106.3  20.8715
   28116.5  20.8920
   28126.7  20.9124
   28136.8  20.9329
   28147.0  20.9533
   28157.2  20.9739
   28167.4  20.9944
   28177.6  21.0149
   28187.9  21.0355
   28198.1  21.0561
   28208.3  21.0767
   28218.5  21.0973
   28228.7  21.1180
   28239.0  21.1386
   28249.2  21.1593
   28259.4  21.1800
   28269.7  21.2007
   28279.9  21.2215
   28290.2  21.2423
   28300.4  21.2631
   28310.7  21.2839
   28320.9  21.3047
   28331.2  21.3256
   28341.4  21.3464
   28351.7  21.3673
   28362.0  21.3882
   28372.3  21.4092
   28382.5  21.4301
   28392.8  21.4511
   28403.1  21.4721
   28413.4  21.4931
   28423.7  21.5141
   28434.0  21.5352
   28444.3  21.5562
   28454.6  21.5773
   28464.9  21.5984
   28475.2  21.6196
   28485.5  21.6407
   28495.9  21.6619
   28506.2  21.6831
   28516.5  21.7043
   28526.8  21.7255
   28537.2  21.7468
   28547.5  21.7681
   28557.9  21.7894
   28568.2  21.8107
   28578.6  21.8321
   28588.9  21.8535
   28599.3  21.8748
   28609.6  21.8962
   28620.0  21.9177
   28630.4  21.9391
   28640.7  21.9606
   28651.1  21.9821
   28661.5  22.0036
   28671.9  22.0251
   28682.3  22.0467
   28692.7  22.0683
   28703.1  22.0899
   28713.5  22.1115
   28723.9  22.1331
   28734.3  22.1548
   28744.7  22.1765
   28755.1  22.1982
   28765.5  22.2199
   28775.9  22.2417
   28786.4  22.2635
   28796.8  22.2852
   28807.2  22.3070
   28817.7  22.3289
   28828.1  22.3507
   28838.5  22.3726
   28849.0  22.3945
   28859.4  22.4164
   28869.9  22.4383
   28880.4  22.4603
   28890.8  22.4823
   28901.3  22.5043
   28911.8  22.5263
   28922.2  22.5483
   28932.7  22.5704
   28943.2  22.5925
   28953.7  22.6146
   28964.2  22.6368
   28974.7  22.6589
   28985.2  22.6811
   28995.7  22.7033
   29006.2  22.7255
   29016.7  22.7477
   29027.2  22.7700
   29037.7  22.7923
   29048.2  22.8146
   29058.8  22.8370
   29069.3  22.8593
   29079.8  22.8817
   29090.4  22.9041
   29100.9  22.9266
   29111.4  22.9490
   29122.0  22.9714
   29132.5  22.9939
   29143.1  23.0165
   29153.6  23.0390
   29164.2  23.0616
   29174.8  23.0842
   29185.3  23.1067
   29195.9  23.1294
   29206.5  23.1520
   29217.1  23.1747
   29227.7  23.1974
   29238.3  23.2201
   29248.8  23.2428
   29259.4  23.2656
   29270.0  23.2884
   29280.7  23.3112
   29291.3  23.3340
   29301.9  23.3568
   29312.5  23.3797
   29323.1  23.4026
   29333.7  23.4255
   29344.4  23.4484
   29355.0  23.4714
   29365.6  23.4944
   29376.3  23.5174
   29386.9  23.5404
   29397.6  23.5634
   29408.2  23.5865
   29418.9  23.6096
   29429.5  23.6327
   29440.2  23.6559
   29450.9  23.6790
   29461.5  23.7022
   29472.2  23.7254
   29482.9  23.7486
   29493.6  23.7719
   29504.2  23.7952
   29514.9  23.8185
   29525.6  23.8418
   29536.3  23.8652
   29547.0  23.8885
   29557.7  23.9120
   29568.4  23.9354
   29579.2  23.9588
   29589.9  23.9823
   29600.6  24.0058
   29611.3  24.0293
   29622.0  24.0528
   29632.8  24.0764
   29643.5  24.1000
   29654.3  24.1236
   29665.0  24.1472
   29675.7  24.1708
   29686.5  24.1945
   29697.3  24.2182
   29708.0  24.2420
   29718.8  24.2657
   29729.5  24.2894
   29740.3  24.3132
   29751.1  24.3371
   29761.9  24.3609
   29772.7  24.3848
   29783.4  24.4087
   29794.2  24.4325
   29805.0  24.4565
   29815.8  24.4804
   29826.6  24.5044
   29837.4  24.5284
   29848.2  24.5524
   29859.1  24.5765
   29869.9  24.6005
   29880.7  24.6246
   29891.5  24.6487
   29902.4  24.6729
   29913.2  24.6971
   29924.0  24.7213
   29934.9  24.7454
   29945.7  24.7697
   29956.6  24.7939
   29967.4  24.8182
   29978.3  24.8425
   29989.1  24.8668
   30000.0  24.8911
